Created As ASCII File,样品 186 用户 Administrator 日期 星期四, 四月 22 2021
cm-1,A
12000.00,0.2230
11999.00,0.2231
11998.00,0.2229
11997.00,0.2227
11996.00,0.2224
11995.00,0.2222
11994.00,0.2221
11993.00,0.2222
11992.00,0.2223
11991.00,0.2223
11990.00,0.2224
11989.00,0.2225
11988.00,0.2226
11987.00,0.2228
11986.00,0.2230
11985.00,0.2232
11984.00,0.2233
11983.00,0.2234
11982.00,0.2233
11981.00,0.2231
11980.00,0.2229
11979.00,0.2226
11978.00,0.2223
11977.00,0.2220
11976.00,0.2217
11975.00,0.2216
11974.00,0.2215
11973.00,0.2216
11972.00,0.2217
11971.00,0.2218
11970.00,0.2219
11969.00,0.2219
11968.00,0.2219
11967.00,0.2220
11966.00,0.2222
11965.00,0.2225
11964.00,0.2228
11963.00,0.2229
11962.00,0.2228
11961.00,0.2226
11960.00,0.2222
11959.00,0.2220
11958.00,0.2219
11957.00,0.2220
11956.00,0.2223
11955.00,0.2226
11954.00,0.2228
11953.00,0.2229
11952.00,0.2227
11951.00,0.2224
11950.00,0.2220
11949.00,0.2218
11948.00,0.2219
11947.00,0.2222
11946.00,0.2227
11945.00,0.2231
11944.00,0.2232
11943.00,0.2229
11942.00,0.2224
11941.00,0.2218
11940.00,0.2214
11939.00,0.2214
11938.00,0.2216
11937.00,0.2219
11936.00,0.2221
11935.00,0.2221
11934.00,0.2218
11933.00,0.2216
11932.00,0.2215
11931.00,0.2217
11930.00,0.2220
11929.00,0.2223
11928.00,0.2223
11927.00,0.2220
11926.00,0.2216
11925.00,0.2212
11924.00,0.2211
11923.00,0.2211
11922.00,0.2212
11921.00,0.2213
11920.00,0.2211
11919.00,0.2208
11918.00,0.2206
11917.00,0.2205
11916.00,0.2207
11915.00,0.2211
11914.00,0.2215
11913.00,0.2218
11912.00,0.2219
11911.00,0.2218
11910.00,0.2217
11909.00,0.2217
11908.00,0.2218
11907.00,0.2220
11906.00,0.2220
11905.00,0.2219
11904.00,0.2217
11903.00,0.2215
11902.00,0.2214
11901.00,0.2215
11900.00,0.2218
11899.00,0.2220
11898.00,0.2222
11897.00,0.2223
11896.00,0.2223
11895.00,0.2224
11894.00,0.2224
11893.00,0.2225
11892.00,0.2225
11891.00,0.2224
11890.00,0.2222
11889.00,0.2222
11888.00,0.2222
11887.00,0.2225
11886.00,0.2228
11885.00,0.2230
11884.00,0.2230
11883.00,0.2228
11882.00,0.2225
11881.00,0.2223
11880.00,0.2223
11879.00,0.2226
11878.00,0.2229
11877.00,0.2230
11876.00,0.2229
11875.00,0.2225
11874.00,0.2221
11873.00,0.2219
11872.00,0.2219
11871.00,0.2221
11870.00,0.2224
11869.00,0.2227
11868.00,0.2227
11867.00,0.2225
11866.00,0.2222
11865.00,0.2220
11864.00,0.2220
11863.00,0.2221
11862.00,0.2223
11861.00,0.2225
11860.00,0.2225
11859.00,0.2224
11858.00,0.2222
11857.00,0.2220
11856.00,0.2219
11855.00,0.2219
11854.00,0.2221
11853.00,0.2223
11852.00,0.2224
11851.00,0.2224
11850.00,0.2223
11849.00,0.2220
11848.00,0.2218
11847.00,0.2218
11846.00,0.2218
11845.00,0.2219
11844.00,0.2221
11843.00,0.2221
11842.00,0.2220
11841.00,0.2219
11840.00,0.2217
11839.00,0.2215
11838.00,0.2215
11837.00,0.2215
11836.00,0.2216
11835.00,0.2217
11834.00,0.2217
11833.00,0.2218
11832.00,0.2218
11831.00,0.2217
11830.00,0.2217
11829.00,0.2218
11828.00,0.2219
11827.00,0.2220
11826.00,0.2221
11825.00,0.2222
11824.00,0.2222
11823.00,0.2222
11822.00,0.2223
11821.00,0.2225
11820.00,0.2227
11819.00,0.2229
11818.00,0.2229
11817.00,0.2228
11816.00,0.2227
11815.00,0.2226
11814.00,0.2227
11813.00,0.2230
11812.00,0.2233
11811.00,0.2235
11810.00,0.2234
11809.00,0.2230
11808.00,0.2225
11807.00,0.2220
11806.00,0.2217
11805.00,0.2215
11804.00,0.2215
11803.00,0.2214
11802.00,0.2212
11801.00,0.2210
11800.00,0.2210
11799.00,0.2210
11798.00,0.2212
11797.00,0.2214
11796.00,0.2216
11795.00,0.2217
11794.00,0.2218
11793.00,0.2220
11792.00,0.2224
11791.00,0.2228
11790.00,0.2231
11789.00,0.2231
11788.00,0.2229
11787.00,0.2225
11786.00,0.2221
11785.00,0.2218
11784.00,0.2218
11783.00,0.2219
11782.00,0.2220
11781.00,0.2219
11780.00,0.2216
11779.00,0.2212
11778.00,0.2209
11777.00,0.2208
11776.00,0.2210
11775.00,0.2214
11774.00,0.2219
11773.00,0.2222
11772.00,0.2224
11771.00,0.2224
11770.00,0.2224
11769.00,0.2224
11768.00,0.2224
11767.00,0.2225
11766.00,0.2226
11765.00,0.2227
11764.00,0.2227
11763.00,0.2227
11762.00,0.2227
11761.00,0.2226
11760.00,0.2224
11759.00,0.2222
11758.00,0.2219
11757.00,0.2218
11756.00,0.2219
11755.00,0.2221
11754.00,0.2224
11753.00,0.2227
11752.00,0.2227
11751.00,0.2225
11750.00,0.2222
11749.00,0.2221
11748.00,0.2222
11747.00,0.2225
11746.00,0.2228
11745.00,0.2230
11744.00,0.2228
11743.00,0.2225
11742.00,0.2221
11741.00,0.2218
11740.00,0.2216
11739.00,0.2216
11738.00,0.2217
11737.00,0.2217
11736.00,0.2217
11735.00,0.2217
11734.00,0.2218
11733.00,0.2218
11732.00,0.2219
11731.00,0.2219
11730.00,0.2218
11729.00,0.2218
11728.00,0.2218
11727.00,0.2219
11726.00,0.2219
11725.00,0.2220
11724.00,0.2219
11723.00,0.2218
11722.00,0.2218
11721.00,0.2219
11720.00,0.2221
11719.00,0.2224
11718.00,0.2227
11717.00,0.2229
11716.00,0.2229
11715.00,0.2229
11714.00,0.2229
11713.00,0.2229
11712.00,0.2229
11711.00,0.2229
11710.00,0.2227
11709.00,0.2224
11708.00,0.2221
11707.00,0.2218
11706.00,0.2217
11705.00,0.2217
11704.00,0.2217
11703.00,0.2217
11702.00,0.2216
11701.00,0.2215
11700.00,0.2214
11699.00,0.2214
11698.00,0.2215
11697.00,0.2217
11696.00,0.2219
11695.00,0.2221
11694.00,0.2221
11693.00,0.2220
11692.00,0.2220
11691.00,0.2219
11690.00,0.2219
11689.00,0.2220
11688.00,0.2221
11687.00,0.2222
11686.00,0.2222
11685.00,0.2222
11684.00,0.2222
11683.00,0.2222
11682.00,0.2221
11681.00,0.2221
11680.00,0.2220
11679.00,0.2220
11678.00,0.2221
11677.00,0.2222
11676.00,0.2224
11675.00,0.2224
11674.00,0.2224
11673.00,0.2223
11672.00,0.2221
11671.00,0.2220
11670.00,0.2221
11669.00,0.2224
11668.00,0.2228
11667.00,0.2231
11666.00,0.2234
11665.00,0.2235
11664.00,0.2235
11663.00,0.2235
11662.00,0.2234
11661.00,0.2232
11660.00,0.2229
11659.00,0.2225
11658.00,0.2223
11657.00,0.2221
11656.00,0.2221
11655.00,0.2222
11654.00,0.2221
11653.00,0.2218
11652.00,0.2214
11651.00,0.2209
11650.00,0.2208
11649.00,0.2210
11648.00,0.2216
11647.00,0.2222
11646.00,0.2227
11645.00,0.2229
11644.00,0.2229
11643.00,0.2228
11642.00,0.2229
11641.00,0.2231
11640.00,0.2234
11639.00,0.2236
11638.00,0.2235
11637.00,0.2234
11636.00,0.2232
11635.00,0.2230
11634.00,0.2230
11633.00,0.2230
11632.00,0.2228
11631.00,0.2226
11630.00,0.2223
11629.00,0.2221
11628.00,0.2220
11627.00,0.2220
11626.00,0.2221
11625.00,0.2220
11624.00,0.2218
11623.00,0.2216
11622.00,0.2214
11621.00,0.2214
11620.00,0.2216
11619.00,0.2219
11618.00,0.2222
11617.00,0.2223
11616.00,0.2223
11615.00,0.2223
11614.00,0.2223
11613.00,0.2224
11612.00,0.2226
11611.00,0.2229
11610.00,0.2231
11609.00,0.2231
11608.00,0.2230
11607.00,0.2227
11606.00,0.2224
11605.00,0.2222
11604.00,0.2221
11603.00,0.2221
11602.00,0.2223
11601.00,0.2225
11600.00,0.2226
11599.00,0.2225
11598.00,0.2224
11597.00,0.2223
11596.00,0.2223
11595.00,0.2223
11594.00,0.2225
11593.00,0.2226
11592.00,0.2227
11591.00,0.2228
11590.00,0.2229
11589.00,0.2229
11588.00,0.2229
11587.00,0.2229
11586.00,0.2228
11585.00,0.2227
11584.00,0.2227
11583.00,0.2228
11582.00,0.2229
11581.00,0.2228
11580.00,0.2225
11579.00,0.2220
11578.00,0.2215
11577.00,0.2212
11576.00,0.2214
11575.00,0.2218
11574.00,0.2223
11573.00,0.2226
11572.00,0.2225
11571.00,0.2221
11570.00,0.2216
11569.00,0.2213
11568.00,0.2215
11567.00,0.2221
11566.00,0.2228
11565.00,0.2233
11564.00,0.2234
11563.00,0.2231
11562.00,0.2225
11561.00,0.2220
11560.00,0.2218
11559.00,0.2220
11558.00,0.2223
11557.00,0.2226
11556.00,0.2228
11555.00,0.2228
11554.00,0.2226
11553.00,0.2224
11552.00,0.2223
11551.00,0.2222
11550.00,0.2222
11549.00,0.2222
11548.00,0.2222
11547.00,0.2223
11546.00,0.2223
11545.00,0.2224
11544.00,0.2224
11543.00,0.2223
11542.00,0.2222
11541.00,0.2220
11540.00,0.2219
11539.00,0.2219
11538.00,0.2220
11537.00,0.2222
11536.00,0.2225
11535.00,0.2227
11534.00,0.2229
11533.00,0.2230
11532.00,0.2230
11531.00,0.2231
11530.00,0.2232
11529.00,0.2232
11528.00,0.2233
11527.00,0.2234
11526.00,0.2234
11525.00,0.2235
11524.00,0.2235
11523.00,0.2235
11522.00,0.2235
11521.00,0.2234
11520.00,0.2234
11519.00,0.2233
11518.00,0.2232
11517.00,0.2231
11516.00,0.2228
11515.00,0.2225
11514.00,0.2221
11513.00,0.2218
11512.00,0.2216
11511.00,0.2216
11510.00,0.2217
11509.00,0.2216
11508.00,0.2215
11507.00,0.2212
11506.00,0.2210
11505.00,0.2209
11504.00,0.2210
11503.00,0.2213
11502.00,0.2217
11501.00,0.2219
11500.00,0.2221
11499.00,0.2221
11498.00,0.2220
11497.00,0.2220
11496.00,0.2220
11495.00,0.2221
11494.00,0.2221
11493.00,0.2221
11492.00,0.2221
11491.00,0.2222
11490.00,0.2224
11489.00,0.2225
11488.00,0.2226
11487.00,0.2226
11486.00,0.2224
11485.00,0.2223
11484.00,0.2222
11483.00,0.2222
11482.00,0.2223
11481.00,0.2224
11480.00,0.2225
11479.00,0.2226
11478.00,0.2228
11477.00,0.2231
11476.00,0.2233
11475.00,0.2236
11474.00,0.2238
11473.00,0.2239
11472.00,0.2239
11471.00,0.2239
11470.00,0.2239
11469.00,0.2238
11468.00,0.2237
11467.00,0.2234
11466.00,0.2232
11465.00,0.2230
11464.00,0.2230
11463.00,0.2231
11462.00,0.2231
11461.00,0.2230
11460.00,0.2227
11459.00,0.2225
11458.00,0.2224
11457.00,0.2225
11456.00,0.2227
11455.00,0.2230
11454.00,0.2230
11453.00,0.2227
11452.00,0.2222
11451.00,0.2218
11450.00,0.2216
11449.00,0.2217
11448.00,0.2220
11447.00,0.2224
11446.00,0.2226
11445.00,0.2226
11444.00,0.2224
11443.00,0.2222
11442.00,0.2222
11441.00,0.2223
11440.00,0.2224
11439.00,0.2225
11438.00,0.2225
11437.00,0.2224
11436.00,0.2224
11435.00,0.2223
11434.00,0.2223
11433.00,0.2223
11432.00,0.2223
11431.00,0.2221
11430.00,0.2220
11429.00,0.2218
11428.00,0.2218
11427.00,0.2220
11426.00,0.2222
11425.00,0.2225
11424.00,0.2226
11423.00,0.2225
11422.00,0.2224
11421.00,0.2224
11420.00,0.2226
11419.00,0.2229
11418.00,0.2234
11417.00,0.2237
11416.00,0.2238
11415.00,0.2235
11414.00,0.2230
11413.00,0.2225
11412.00,0.2222
11411.00,0.2223
11410.00,0.2227
11409.00,0.2231
11408.00,0.2233
11407.00,0.2232
11406.00,0.2230
11405.00,0.2228
11404.00,0.2228
11403.00,0.2230
11402.00,0.2233
11401.00,0.2236
11400.00,0.2236
11399.00,0.2234
11398.00,0.2230
11397.00,0.2225
11396.00,0.2222
11395.00,0.2220
11394.00,0.2220
11393.00,0.2221
11392.00,0.2222
11391.00,0.2223
11390.00,0.2225
11389.00,0.2227
11388.00,0.2229
11387.00,0.2230
11386.00,0.2231
11385.00,0.2231
11384.00,0.2232
11383.00,0.2232
11382.00,0.2233
11381.00,0.2234
11380.00,0.2235
11379.00,0.2233
11378.00,0.2231
11377.00,0.2229
11376.00,0.2227
11375.00,0.2226
11374.00,0.2227
11373.00,0.2229
11372.00,0.2230
11371.00,0.2229
11370.00,0.2228
11369.00,0.2225
11368.00,0.2224
11367.00,0.2224
11366.00,0.2225
11365.00,0.2228
11364.00,0.2231
11363.00,0.2233
11362.00,0.2233
11361.00,0.2233
11360.00,0.2234
11359.00,0.2235
11358.00,0.2235
11357.00,0.2235
11356.00,0.2234
11355.00,0.2231
11354.00,0.2228
11353.00,0.2225
11352.00,0.2224
11351.00,0.2224
11350.00,0.2225
11349.00,0.2225
11348.00,0.2225
11347.00,0.2224
11346.00,0.2223
11345.00,0.2224
11344.00,0.2227
11343.00,0.2231
11342.00,0.2234
11341.00,0.2237
11340.00,0.2238
11339.00,0.2237
11338.00,0.2236
11337.00,0.2235
11336.00,0.2236
11335.00,0.2238
11334.00,0.2241
11333.00,0.2244
11332.00,0.2246
11331.00,0.2246
11330.00,0.2243
11329.00,0.2239
11328.00,0.2234
11327.00,0.2231
11326.00,0.2229
11325.00,0.2229
11324.00,0.2230
11323.00,0.2231
11322.00,0.2230
11321.00,0.2227
11320.00,0.2223
11319.00,0.2221
11318.00,0.2220
11317.00,0.2222
11316.00,0.2226
11315.00,0.2229
11314.00,0.2232
11313.00,0.2234
11312.00,0.2234
11311.00,0.2233
11310.00,0.2230
11309.00,0.2227
11308.00,0.2225
11307.00,0.2225
11306.00,0.2227
11305.00,0.2229
11304.00,0.2232
11303.00,0.2232
11302.00,0.2229
11301.00,0.2225
11300.00,0.2222
11299.00,0.2221
11298.00,0.2224
11297.00,0.2229
11296.00,0.2234
11295.00,0.2237
11294.00,0.2238
11293.00,0.2236
11292.00,0.2233
11291.00,0.2231
11290.00,0.2230
11289.00,0.2232
11288.00,0.2233
11287.00,0.2235
11286.00,0.2235
11285.00,0.2233
11284.00,0.2230
11283.00,0.2227
11282.00,0.2225
11281.00,0.2225
11280.00,0.2227
11279.00,0.2231
11278.00,0.2235
11277.00,0.2238
11276.00,0.2238
11275.00,0.2236
11274.00,0.2233
11273.00,0.2230
11272.00,0.2228
11271.00,0.2227
11270.00,0.2227
11269.00,0.2228
11268.00,0.2228
11267.00,0.2227
11266.00,0.2225
11265.00,0.2224
11264.00,0.2222
11263.00,0.2223
11262.00,0.2224
11261.00,0.2228
11260.00,0.2232
11259.00,0.2236
11258.00,0.2238
11257.00,0.2237
11256.00,0.2234
11255.00,0.2230
11254.00,0.2226
11253.00,0.2225
11252.00,0.2226
11251.00,0.2228
11250.00,0.2230
11249.00,0.2231
11248.00,0.2230
11247.00,0.2227
11246.00,0.2225
11245.00,0.2224
11244.00,0.2225
11243.00,0.2227
11242.00,0.2229
11241.00,0.2231
11240.00,0.2231
11239.00,0.2230
11238.00,0.2229
11237.00,0.2228
11236.00,0.2228
11235.00,0.2229
11234.00,0.2229
11233.00,0.2230
11232.00,0.2230
11231.00,0.2231
11230.00,0.2231
11229.00,0.2232
11228.00,0.2233
11227.00,0.2233
11226.00,0.2233
11225.00,0.2232
11224.00,0.2231
11223.00,0.2231
11222.00,0.2231
11221.00,0.2232
11220.00,0.2233
11219.00,0.2232
11218.00,0.2231
11217.00,0.2230
11216.00,0.2229
11215.00,0.2229
11214.00,0.2230
11213.00,0.2231
11212.00,0.2230
11211.00,0.2229
11210.00,0.2226
11209.00,0.2225
11208.00,0.2224
11207.00,0.2226
11206.00,0.2228
11205.00,0.2231
11204.00,0.2233
11203.00,0.2234
11202.00,0.2234
11201.00,0.2233
11200.00,0.2233
11199.00,0.2234
11198.00,0.2235
11197.00,0.2236
11196.00,0.2236
11195.00,0.2234
11194.00,0.2230
11193.00,0.2227
11192.00,0.2225
11191.00,0.2224
11190.00,0.2225
11189.00,0.2226
11188.00,0.2227
11187.00,0.2227
11186.00,0.2226
11185.00,0.2227
11184.00,0.2228
11183.00,0.2231
11182.00,0.2232
11181.00,0.2232
11180.00,0.2230
11179.00,0.2227
11178.00,0.2224
11177.00,0.2222
11176.00,0.2223
11175.00,0.2225
11174.00,0.2226
11173.00,0.2226
11172.00,0.2224
11171.00,0.2222
11170.00,0.2222
11169.00,0.2224
11168.00,0.2227
11167.00,0.2231
11166.00,0.2232
11165.00,0.2231
11164.00,0.2229
11163.00,0.2226
11162.00,0.2225
11161.00,0.2226
11160.00,0.2229
11159.00,0.2231
11158.00,0.2232
11157.00,0.2231
11156.00,0.2229
11155.00,0.2227
11154.00,0.2226
11153.00,0.2226
11152.00,0.2227
11151.00,0.2228
11150.00,0.2229
11149.00,0.2229
11148.00,0.2229
11147.00,0.2229
11146.00,0.2229
11145.00,0.2230
11144.00,0.2232
11143.00,0.2234
11142.00,0.2236
11141.00,0.2236
11140.00,0.2235
11139.00,0.2234
11138.00,0.2234
11137.00,0.2235
11136.00,0.2236
11135.00,0.2237
11134.00,0.2238
11133.00,0.2238
11132.00,0.2238
11131.00,0.2237
11130.00,0.2236
11129.00,0.2235
11128.00,0.2235
11127.00,0.2236
11126.00,0.2238
11125.00,0.2239
11124.00,0.2238
11123.00,0.2235
11122.00,0.2232
11121.00,0.2229
11120.00,0.2228
11119.00,0.2229
11118.00,0.2231
11117.00,0.2233
11116.00,0.2232
11115.00,0.2230
11114.00,0.2227
11113.00,0.2225
11112.00,0.2224
11111.00,0.2224
11110.00,0.2225
11109.00,0.2225
11108.00,0.2224
11107.00,0.2222
11106.00,0.2223
11105.00,0.2225
11104.00,0.2228
11103.00,0.2231
11102.00,0.2233
11101.00,0.2232
11100.00,0.2231
11099.00,0.2229
11098.00,0.2229
11097.00,0.2231
11096.00,0.2233
11095.00,0.2234
11094.00,0.2233
11093.00,0.2231
11092.00,0.2229
11091.00,0.2228
11090.00,0.2228
11089.00,0.2229
11088.00,0.2231
11087.00,0.2231
11086.00,0.2232
11085.00,0.2231
11084.00,0.2231
11083.00,0.2232
11082.00,0.2232
11081.00,0.2232
11080.00,0.2233
11079.00,0.2233
11078.00,0.2235
11077.00,0.2236
11076.00,0.2236
11075.00,0.2236
11074.00,0.2234
11073.00,0.2231
11072.00,0.2229
11071.00,0.2227
11070.00,0.2227
11069.00,0.2228
11068.00,0.2229
11067.00,0.2230
11066.00,0.2229
11065.00,0.2229
11064.00,0.2230
11063.00,0.2232
11062.00,0.2235
11061.00,0.2239
11060.00,0.2242
11059.00,0.2244
11058.00,0.2244
11057.00,0.2244
11056.00,0.2243
11055.00,0.2243
11054.00,0.2243
11053.00,0.2242
11052.00,0.2239
11051.00,0.2236
11050.00,0.2232
11049.00,0.2229
11048.00,0.2227
11047.00,0.2225
11046.00,0.2224
11045.00,0.2222
11044.00,0.2219
11043.00,0.2217
11042.00,0.2216
11041.00,0.2217
11040.00,0.2219
11039.00,0.2222
11038.00,0.2224
11037.00,0.2226
11036.00,0.2226
11035.00,0.2227
11034.00,0.2228
11033.00,0.2229
11032.00,0.2231
11031.00,0.2232
11030.00,0.2233
11029.00,0.2233
11028.00,0.2233
11027.00,0.2234
11026.00,0.2235
11025.00,0.2237
11024.00,0.2238
11023.00,0.2239
11022.00,0.2239
11021.00,0.2237
11020.00,0.2235
11019.00,0.2233
11018.00,0.2232
11017.00,0.2231
11016.00,0.2231
11015.00,0.2231
11014.00,0.2231
11013.00,0.2230
11012.00,0.2229
11011.00,0.2227
11010.00,0.2226
11009.00,0.2228
11008.00,0.2230
11007.00,0.2234
11006.00,0.2237
11005.00,0.2238
11004.00,0.2236
11003.00,0.2234
11002.00,0.2232
11001.00,0.2231
11000.00,0.2231
10999.00,0.2233
10998.00,0.2235
10997.00,0.2235
10996.00,0.2235
10995.00,0.2232
10994.00,0.2229
10993.00,0.2227
10992.00,0.2225
10991.00,0.2225
10990.00,0.2227
10989.00,0.2229
10988.00,0.2230
10987.00,0.2230
10986.00,0.2228
10985.00,0.2226
10984.00,0.2225
10983.00,0.2226
10982.00,0.2227
10981.00,0.2229
10980.00,0.2230
10979.00,0.2230
10978.00,0.2230
10977.00,0.2229
10976.00,0.2230
10975.00,0.2231
10974.00,0.2233
10973.00,0.2233
10972.00,0.2233
10971.00,0.2232
10970.00,0.2231
10969.00,0.2231
10968.00,0.2232
10967.00,0.2233
10966.00,0.2234
10965.00,0.2234
10964.00,0.2234
10963.00,0.2234
10962.00,0.2234
10961.00,0.2235
10960.00,0.2235
10959.00,0.2234
10958.00,0.2232
10957.00,0.2231
10956.00,0.2231
10955.00,0.2231
10954.00,0.2232
10953.00,0.2233
10952.00,0.2233
10951.00,0.2232
10950.00,0.2232
10949.00,0.2232
10948.00,0.2232
10947.00,0.2233
10946.00,0.2232
10945.00,0.2231
10944.00,0.2229
10943.00,0.2227
10942.00,0.2226
10941.00,0.2227
10940.00,0.2227
10939.00,0.2228
10938.00,0.2228
10937.00,0.2228
10936.00,0.2228
10935.00,0.2229
10934.00,0.2231
10933.00,0.2234
10932.00,0.2237
10931.00,0.2238
10930.00,0.2236
10929.00,0.2233
10928.00,0.2230
10927.00,0.2228
10926.00,0.2229
10925.00,0.2230
10924.00,0.2232
10923.00,0.2232
10922.00,0.2230
10921.00,0.2228
10920.00,0.2226
10919.00,0.2226
10918.00,0.2227
10917.00,0.2228
10916.00,0.2228
10915.00,0.2225
10914.00,0.2222
10913.00,0.2220
10912.00,0.2221
10911.00,0.2223
10910.00,0.2226
10909.00,0.2227
10908.00,0.2228
10907.00,0.2227
10906.00,0.2227
10905.00,0.2229
10904.00,0.2233
10903.00,0.2236
10902.00,0.2237
10901.00,0.2235
10900.00,0.2231
10899.00,0.2226
10898.00,0.2222
10897.00,0.2219
10896.00,0.2218
10895.00,0.2219
10894.00,0.2220
10893.00,0.2221
10892.00,0.2222
10891.00,0.2224
10890.00,0.2226
10889.00,0.2227
10888.00,0.2228
10887.00,0.2228
10886.00,0.2229
10885.00,0.2230
10884.00,0.2231
10883.00,0.2230
10882.00,0.2228
10881.00,0.2225
10880.00,0.2222
10879.00,0.2221
10878.00,0.2222
10877.00,0.2225
10876.00,0.2229
10875.00,0.2232
10874.00,0.2233
10873.00,0.2233
10872.00,0.2233
10871.00,0.2233
10870.00,0.2234
10869.00,0.2235
10868.00,0.2236
10867.00,0.2234
10866.00,0.2232
10865.00,0.2228
10864.00,0.2225
10863.00,0.2223
10862.00,0.2223
10861.00,0.2222
10860.00,0.2221
10859.00,0.2220
10858.00,0.2219
10857.00,0.2218
10856.00,0.2218
10855.00,0.2219
10854.00,0.2221
10853.00,0.2222
10852.00,0.2222
10851.00,0.2222
10850.00,0.2222
10849.00,0.2223
10848.00,0.2223
10847.00,0.2222
10846.00,0.2220
10845.00,0.2218
10844.00,0.2217
10843.00,0.2217
10842.00,0.2220
10841.00,0.2223
10840.00,0.2227
10839.00,0.2228
10838.00,0.2229
10837.00,0.2228
10836.00,0.2227
10835.00,0.2227
10834.00,0.2228
10833.00,0.2229
10832.00,0.2228
10831.00,0.2227
10830.00,0.2226
10829.00,0.2224
10828.00,0.2223
10827.00,0.2223
10826.00,0.2224
10825.00,0.2225
10824.00,0.2226
10823.00,0.2227
10822.00,0.2228
10821.00,0.2228
10820.00,0.2229
10819.00,0.2229
10818.00,0.2229
10817.00,0.2229
10816.00,0.2229
10815.00,0.2228
10814.00,0.2228
10813.00,0.2228
10812.00,0.2228
10811.00,0.2228
10810.00,0.2229
10809.00,0.2230
10808.00,0.2231
10807.00,0.2231
10806.00,0.2230
10805.00,0.2229
10804.00,0.2228
10803.00,0.2227
10802.00,0.2226
10801.00,0.2226
10800.00,0.2225
10799.00,0.2225
10798.00,0.2224
10797.00,0.2223
10796.00,0.2223
10795.00,0.2224
10794.00,0.2226
10793.00,0.2228
10792.00,0.2230
10791.00,0.2231
10790.00,0.2230
10789.00,0.2229
10788.00,0.2228
10787.00,0.2227
10786.00,0.2227
10785.00,0.2226
10784.00,0.2225
10783.00,0.2223
10782.00,0.2223
10781.00,0.2224
10780.00,0.2225
10779.00,0.2226
10778.00,0.2226
10777.00,0.2224
10776.00,0.2223
10775.00,0.2224
10774.00,0.2226
10773.00,0.2229
10772.00,0.2230
10771.00,0.2230
10770.00,0.2227
10769.00,0.2224
10768.00,0.2223
10767.00,0.2224
10766.00,0.2226
10765.00,0.2228
10764.00,0.2228
10763.00,0.2227
10762.00,0.2226
10761.00,0.2226
10760.00,0.2226
10759.00,0.2226
10758.00,0.2226
10757.00,0.2225
10756.00,0.2223
10755.00,0.2223
10754.00,0.2224
10753.00,0.2225
10752.00,0.2224
10751.00,0.2222
10750.00,0.2219
10749.00,0.2217
10748.00,0.2217
10747.00,0.2219
10746.00,0.2222
10745.00,0.2224
10744.00,0.2225
10743.00,0.2225
10742.00,0.2224
10741.00,0.2225
10740.00,0.2226
10739.00,0.2227
10738.00,0.2227
10737.00,0.2227
10736.00,0.2226
10735.00,0.2227
10734.00,0.2228
10733.00,0.2230
10732.00,0.2230
10731.00,0.2229
10730.00,0.2228
10729.00,0.2227
10728.00,0.2227
10727.00,0.2229
10726.00,0.2231
10725.00,0.2232
10724.00,0.2230
10723.00,0.2227
10722.00,0.2225
10721.00,0.2224
10720.00,0.2226
10719.00,0.2228
10718.00,0.2231
10717.00,0.2231
10716.00,0.2230
10715.00,0.2229
10714.00,0.2227
10713.00,0.2227
10712.00,0.2228
10711.00,0.2229
10710.00,0.2229
10709.00,0.2228
10708.00,0.2227
10707.00,0.2225
10706.00,0.2224
10705.00,0.2224
10704.00,0.2224
10703.00,0.2225
10702.00,0.2226
10701.00,0.2227
10700.00,0.2228
10699.00,0.2229
10698.00,0.2230
10697.00,0.2231
10696.00,0.2230
10695.00,0.2229
10694.00,0.2228
10693.00,0.2227
10692.00,0.2228
10691.00,0.2228
10690.00,0.2229
10689.00,0.2228
10688.00,0.2227
10687.00,0.2226
10686.00,0.2225
10685.00,0.2225
10684.00,0.2227
10683.00,0.2227
10682.00,0.2227
10681.00,0.2225
10680.00,0.2222
10679.00,0.2220
10678.00,0.2220
10677.00,0.2221
10676.00,0.2223
10675.00,0.2225
10674.00,0.2225
10673.00,0.2224
10672.00,0.2224
10671.00,0.2224
10670.00,0.2225
10669.00,0.2226
10668.00,0.2228
10667.00,0.2230
10666.00,0.2231
10665.00,0.2232
10664.00,0.2232
10663.00,0.2231
10662.00,0.2230
10661.00,0.2230
10660.00,0.2230
10659.00,0.2232
10658.00,0.2234
10657.00,0.2235
10656.00,0.2235
10655.00,0.2233
10654.00,0.2231
10653.00,0.2230
10652.00,0.2230
10651.00,0.2232
10650.00,0.2233
10649.00,0.2233
10648.00,0.2231
10647.00,0.2230
10646.00,0.2230
10645.00,0.2230
10644.00,0.2231
10643.00,0.2232
10642.00,0.2232
10641.00,0.2231
10640.00,0.2230
10639.00,0.2229
10638.00,0.2228
10637.00,0.2228
10636.00,0.2228
10635.00,0.2228
10634.00,0.2229
10633.00,0.2229
10632.00,0.2230
10631.00,0.2231
10630.00,0.2232
10629.00,0.2233
10628.00,0.2235
10627.00,0.2237
10626.00,0.2238
10625.00,0.2237
10624.00,0.2236
10623.00,0.2235
10622.00,0.2233
10621.00,0.2232
10620.00,0.2232
10619.00,0.2230
10618.00,0.2229
10617.00,0.2228
10616.00,0.2227
10615.00,0.2228
10614.00,0.2229
10613.00,0.2232
10612.00,0.2234
10611.00,0.2237
10610.00,0.2238
10609.00,0.2238
10608.00,0.2238
10607.00,0.2238
10606.00,0.2237
10605.00,0.2238
10604.00,0.2239
10603.00,0.2241
10602.00,0.2242
10601.00,0.2244
10600.00,0.2244
10599.00,0.2244
10598.00,0.2242
10597.00,0.2240
10596.00,0.2238
10595.00,0.2237
10594.00,0.2236
10593.00,0.2237
10592.00,0.2238
10591.00,0.2238
10590.00,0.2238
10589.00,0.2236
10588.00,0.2235
10587.00,0.2234
10586.00,0.2235
10585.00,0.2236
10584.00,0.2237
10583.00,0.2237
10582.00,0.2237
10581.00,0.2237
10580.00,0.2236
10579.00,0.2235
10578.00,0.2234
10577.00,0.2234
10576.00,0.2235
10575.00,0.2237
10574.00,0.2240
10573.00,0.2241
10572.00,0.2242
10571.00,0.2242
10570.00,0.2242
10569.00,0.2242
10568.00,0.2242
10567.00,0.2241
10566.00,0.2240
10565.00,0.2240
10564.00,0.2240
10563.00,0.2242
10562.00,0.2244
10561.00,0.2244
10560.00,0.2244
10559.00,0.2243
10558.00,0.2243
10557.00,0.2243
10556.00,0.2245
10555.00,0.2247
10554.00,0.2249
10553.00,0.2249
10552.00,0.2248
10551.00,0.2247
10550.00,0.2246
10549.00,0.2246
10548.00,0.2247
10547.00,0.2249
10546.00,0.2250
10545.00,0.2252
10544.00,0.2253
10543.00,0.2254
10542.00,0.2254
10541.00,0.2254
10540.00,0.2254
10539.00,0.2256
10538.00,0.2258
10537.00,0.2260
10536.00,0.2260
10535.00,0.2259
10534.00,0.2257
10533.00,0.2256
10532.00,0.2255
10531.00,0.2256
10530.00,0.2256
10529.00,0.2256
10528.00,0.2255
10527.00,0.2254
10526.00,0.2255
10525.00,0.2256
10524.00,0.2258
10523.00,0.2260
10522.00,0.2260
10521.00,0.2260
10520.00,0.2259
10519.00,0.2258
10518.00,0.2258
10517.00,0.2259
10516.00,0.2259
10515.00,0.2259
10514.00,0.2258
10513.00,0.2259
10512.00,0.2260
10511.00,0.2261
10510.00,0.2263
10509.00,0.2265
10508.00,0.2266
10507.00,0.2266
10506.00,0.2266
10505.00,0.2265
10504.00,0.2264
10503.00,0.2263
10502.00,0.2262
10501.00,0.2259
10500.00,0.2257
10499.00,0.2254
10498.00,0.2253
10497.00,0.2254
10496.00,0.2255
10495.00,0.2255
10494.00,0.2255
10493.00,0.2254
10492.00,0.2253
10491.00,0.2254
10490.00,0.2256
10489.00,0.2259
10488.00,0.2262
10487.00,0.2264
10486.00,0.2266
10485.00,0.2267
10484.00,0.2269
10483.00,0.2270
10482.00,0.2270
10481.00,0.2271
10480.00,0.2272
10479.00,0.2274
10478.00,0.2276
10477.00,0.2277
10476.00,0.2276
10475.00,0.2275
10474.00,0.2273
10473.00,0.2272
10472.00,0.2273
10471.00,0.2275
10470.00,0.2277
10469.00,0.2278
10468.00,0.2277
10467.00,0.2275
10466.00,0.2272
10465.00,0.2271
10464.00,0.2271
10463.00,0.2272
10462.00,0.2274
10461.00,0.2274
10460.00,0.2274
10459.00,0.2272
10458.00,0.2271
10457.00,0.2270
10456.00,0.2270
10455.00,0.2272
10454.00,0.2273
10453.00,0.2273
10452.00,0.2272
10451.00,0.2270
10450.00,0.2269
10449.00,0.2269
10448.00,0.2271
10447.00,0.2273
10446.00,0.2275
10445.00,0.2276
10444.00,0.2277
10443.00,0.2278
10442.00,0.2279
10441.00,0.2280
10440.00,0.2282
10439.00,0.2283
10438.00,0.2283
10437.00,0.2283
10436.00,0.2282
10435.00,0.2281
10434.00,0.2281
10433.00,0.2280
10432.00,0.2279
10431.00,0.2279
10430.00,0.2279
10429.00,0.2280
10428.00,0.2281
10427.00,0.2282
10426.00,0.2284
10425.00,0.2285
10424.00,0.2286
10423.00,0.2287
10422.00,0.2287
10421.00,0.2286
10420.00,0.2285
10419.00,0.2283
10418.00,0.2281
10417.00,0.2280
10416.00,0.2280
10415.00,0.2280
10414.00,0.2281
10413.00,0.2281
10412.00,0.2281
10411.00,0.2282
10410.00,0.2284
10409.00,0.2287
10408.00,0.2289
10407.00,0.2291
10406.00,0.2292
10405.00,0.2293
10404.00,0.2295
10403.00,0.2297
10402.00,0.2298
10401.00,0.2297
10400.00,0.2295
10399.00,0.2292
10398.00,0.2290
10397.00,0.2290
10396.00,0.2291
10395.00,0.2292
10394.00,0.2292
10393.00,0.2290
10392.00,0.2287
10391.00,0.2286
10390.00,0.2286
10389.00,0.2289
10388.00,0.2292
10387.00,0.2295
10386.00,0.2295
10385.00,0.2293
10384.00,0.2291
10383.00,0.2290
10382.00,0.2290
10381.00,0.2292
10380.00,0.2294
10379.00,0.2294
10378.00,0.2294
10377.00,0.2294
10376.00,0.2294
10375.00,0.2296
10374.00,0.2298
10373.00,0.2300
10372.00,0.2301
10371.00,0.2300
10370.00,0.2298
10369.00,0.2296
10368.00,0.2295
10367.00,0.2295
10366.00,0.2295
10365.00,0.2297
10364.00,0.2298
10363.00,0.2298
10362.00,0.2298
10361.00,0.2298
10360.00,0.2299
10359.00,0.2301
10358.00,0.2303
10357.00,0.2304
10356.00,0.2303
10355.00,0.2302
10354.00,0.2300
10353.00,0.2300
10352.00,0.2300
10351.00,0.2300
10350.00,0.2300
10349.00,0.2300
10348.00,0.2300
10347.00,0.2301
10346.00,0.2302
10345.00,0.2304
10344.00,0.2306
10343.00,0.2306
10342.00,0.2306
10341.00,0.2305
10340.00,0.2305
10339.00,0.2305
10338.00,0.2306
10337.00,0.2306
10336.00,0.2304
10335.00,0.2302
10334.00,0.2301
10333.00,0.2301
10332.00,0.2302
10331.00,0.2304
10330.00,0.2306
10329.00,0.2307
10328.00,0.2306
10327.00,0.2305
10326.00,0.2305
10325.00,0.2307
10324.00,0.2308
10323.00,0.2309
10322.00,0.2309
10321.00,0.2307
10320.00,0.2304
10319.00,0.2303
10318.00,0.2304
10317.00,0.2306
10316.00,0.2308
10315.00,0.2310
10314.00,0.2310
10313.00,0.2310
10312.00,0.2310
10311.00,0.2309
10310.00,0.2309
10309.00,0.2309
10308.00,0.2309
10307.00,0.2309
10306.00,0.2309
10305.00,0.2310
10304.00,0.2310
10303.00,0.2310
10302.00,0.2310
10301.00,0.2311
10300.00,0.2311
10299.00,0.2313
10298.00,0.2315
10297.00,0.2317
10296.00,0.2317
10295.00,0.2317
10294.00,0.2316
10293.00,0.2314
10292.00,0.2313
10291.00,0.2312
10290.00,0.2311
10289.00,0.2310
10288.00,0.2310
10287.00,0.2310
10286.00,0.2311
10285.00,0.2312
10284.00,0.2313
10283.00,0.2314
10282.00,0.2314
10281.00,0.2314
10280.00,0.2314
10279.00,0.2314
10278.00,0.2314
10277.00,0.2314
10276.00,0.2314
10275.00,0.2314
10274.00,0.2314
10273.00,0.2313
10272.00,0.2313
10271.00,0.2312
10270.00,0.2313
10269.00,0.2314
10268.00,0.2315
10267.00,0.2316
10266.00,0.2316
10265.00,0.2316
10264.00,0.2317
10263.00,0.2319
10262.00,0.2320
10261.00,0.2321
10260.00,0.2320
10259.00,0.2319
10258.00,0.2319
10257.00,0.2320
10256.00,0.2322
10255.00,0.2324
10254.00,0.2325
10253.00,0.2325
10252.00,0.2324
10251.00,0.2323
10250.00,0.2322
10249.00,0.2322
10248.00,0.2324
10247.00,0.2325
10246.00,0.2325
10245.00,0.2325
10244.00,0.2325
10243.00,0.2324
10242.00,0.2323
10241.00,0.2322
10240.00,0.2322
10239.00,0.2322
10238.00,0.2323
10237.00,0.2324
10236.00,0.2326
10235.00,0.2328
10234.00,0.2328
10233.00,0.2329
10232.00,0.2329
10231.00,0.2329
10230.00,0.2329
10229.00,0.2329
10228.00,0.2329
10227.00,0.2328
10226.00,0.2327
10225.00,0.2326
10224.00,0.2325
10223.00,0.2325
10222.00,0.2324
10221.00,0.2324
10220.00,0.2325
10219.00,0.2326
10218.00,0.2328
10217.00,0.2330
10216.00,0.2332
10215.00,0.2333
10214.00,0.2333
10213.00,0.2334
10212.00,0.2334
10211.00,0.2335
10210.00,0.2336
10209.00,0.2336
10208.00,0.2335
10207.00,0.2334
10206.00,0.2333
10205.00,0.2333
10204.00,0.2333
10203.00,0.2334
10202.00,0.2334
10201.00,0.2334
10200.00,0.2334
10199.00,0.2335
10198.00,0.2336
10197.00,0.2337
10196.00,0.2338
10195.00,0.2338
10194.00,0.2338
10193.00,0.2337
10192.00,0.2336
10191.00,0.2334
10190.00,0.2333
10189.00,0.2334
10188.00,0.2335
10187.00,0.2335
10186.00,0.2334
10185.00,0.2332
10184.00,0.2329
10183.00,0.2329
10182.00,0.2331
10181.00,0.2335
10180.00,0.2338
10179.00,0.2338
10178.00,0.2336
10177.00,0.2333
10176.00,0.2331
10175.00,0.2333
10174.00,0.2336
10173.00,0.2339
10172.00,0.2339
10171.00,0.2337
10170.00,0.2334
10169.00,0.2332
10168.00,0.2332
10167.00,0.2334
10166.00,0.2335
10165.00,0.2334
10164.00,0.2333
10163.00,0.2331
10162.00,0.2331
10161.00,0.2333
10160.00,0.2335
10159.00,0.2336
10158.00,0.2337
10157.00,0.2337
10156.00,0.2339
10155.00,0.2341
10154.00,0.2343
10153.00,0.2343
10152.00,0.2341
10151.00,0.2339
10150.00,0.2338
10149.00,0.2338
10148.00,0.2340
10147.00,0.2341
10146.00,0.2341
10145.00,0.2339
10144.00,0.2336
10143.00,0.2334
10142.00,0.2335
10141.00,0.2337
10140.00,0.2340
10139.00,0.2341
10138.00,0.2341
10137.00,0.2338
10136.00,0.2336
10135.00,0.2336
10134.00,0.2338
10133.00,0.2340
10132.00,0.2341
10131.00,0.2341
10130.00,0.2340
10129.00,0.2340
10128.00,0.2341
10127.00,0.2343
10126.00,0.2345
10125.00,0.2346
10124.00,0.2345
10123.00,0.2344
10122.00,0.2342
10121.00,0.2341
10120.00,0.2340
10119.00,0.2341
10118.00,0.2341
10117.00,0.2340
10116.00,0.2339
10115.00,0.2337
10114.00,0.2336
10113.00,0.2336
10112.00,0.2336
10111.00,0.2337
10110.00,0.2338
10109.00,0.2338
10108.00,0.2338
10107.00,0.2338
10106.00,0.2337
10105.00,0.2336
10104.00,0.2335
10103.00,0.2335
10102.00,0.2336
10101.00,0.2338
10100.00,0.2340
10099.00,0.2342
10098.00,0.2343
10097.00,0.2343
10096.00,0.2342
10095.00,0.2343
10094.00,0.2344
10093.00,0.2346
10092.00,0.2347
10091.00,0.2347
10090.00,0.2346
10089.00,0.2344
10088.00,0.2342
10087.00,0.2341
10086.00,0.2340
10085.00,0.2339
10084.00,0.2338
10083.00,0.2338
10082.00,0.2338
10081.00,0.2338
10080.00,0.2338
10079.00,0.2338
10078.00,0.2338
10077.00,0.2339
10076.00,0.2340
10075.00,0.2341
10074.00,0.2341
10073.00,0.2341
10072.00,0.2340
10071.00,0.2340
10070.00,0.2341
10069.00,0.2342
10068.00,0.2342
10067.00,0.2342
10066.00,0.2342
10065.00,0.2341
10064.00,0.2342
10063.00,0.2342
10062.00,0.2343
10061.00,0.2342
10060.00,0.2341
10059.00,0.2339
10058.00,0.2337
10057.00,0.2337
10056.00,0.2337
10055.00,0.2337
10054.00,0.2338
10053.00,0.2338
10052.00,0.2338
10051.00,0.2338
10050.00,0.2338
10049.00,0.2339
10048.00,0.2339
10047.00,0.2340
10046.00,0.2340
10045.00,0.2340
10044.00,0.2339
10043.00,0.2338
10042.00,0.2338
10041.00,0.2337
10040.00,0.2337
10039.00,0.2338
10038.00,0.2339
10037.00,0.2341
10036.00,0.2342
10035.00,0.2343
10034.00,0.2343
10033.00,0.2343
10032.00,0.2343
10031.00,0.2343
10030.00,0.2344
10029.00,0.2345
10028.00,0.2345
10027.00,0.2345
10026.00,0.2344
10025.00,0.2342
10024.00,0.2341
10023.00,0.2340
10022.00,0.2341
10021.00,0.2341
10020.00,0.2341
10019.00,0.2340
10018.00,0.2339
10017.00,0.2338
10016.00,0.2336
10015.00,0.2335
10014.00,0.2335
10013.00,0.2335
10012.00,0.2335
10011.00,0.2335
10010.00,0.2334
10009.00,0.2334
10008.00,0.2334
10007.00,0.2335
10006.00,0.2335
10005.00,0.2336
10004.00,0.2336
10003.00,0.2336
10002.00,0.2336
10001.00,0.2336
10000.00,0.2335
9999.00,0.2334
9998.00,0.2333
9997.00,0.2332
9996.00,0.2332
9995.00,0.2333
9994.00,0.2334
9993.00,0.2334
9992.00,0.2334
9991.00,0.2335
9990.00,0.2335
9989.00,0.2337
9988.00,0.2338
9987.00,0.2339
9986.00,0.2338
9985.00,0.2337
9984.00,0.2337
9983.00,0.2338
9982.00,0.2339
9981.00,0.2339
9980.00,0.2339
9979.00,0.2338
9978.00,0.2338
9977.00,0.2338
9976.00,0.2339
9975.00,0.2340
9974.00,0.2340
9973.00,0.2339
9972.00,0.2339
9971.00,0.2340
9970.00,0.2340
9969.00,0.2340
9968.00,0.2340
9967.00,0.2339
9966.00,0.2339
9965.00,0.2340
9964.00,0.2341
9963.00,0.2342
9962.00,0.2342
9961.00,0.2341
9960.00,0.2340
9959.00,0.2340
9958.00,0.2340
9957.00,0.2340
9956.00,0.2340
9955.00,0.2339
9954.00,0.2337
9953.00,0.2336
9952.00,0.2337
9951.00,0.2338
9950.00,0.2339
9949.00,0.2340
9948.00,0.2340
9947.00,0.2340
9946.00,0.2340
9945.00,0.2339
9944.00,0.2338
9943.00,0.2336
9942.00,0.2334
9941.00,0.2333
9940.00,0.2332
9939.00,0.2332
9938.00,0.2330
9937.00,0.2329
9936.00,0.2328
9935.00,0.2329
9934.00,0.2331
9933.00,0.2333
9932.00,0.2335
9931.00,0.2336
9930.00,0.2335
9929.00,0.2333
9928.00,0.2331
9927.00,0.2331
9926.00,0.2332
9925.00,0.2334
9924.00,0.2334
9923.00,0.2334
9922.00,0.2334
9921.00,0.2334
9920.00,0.2334
9919.00,0.2336
9918.00,0.2338
9917.00,0.2338
9916.00,0.2337
9915.00,0.2335
9914.00,0.2333
9913.00,0.2331
9912.00,0.2331
9911.00,0.2331
9910.00,0.2331
9909.00,0.2332
9908.00,0.2332
9907.00,0.2333
9906.00,0.2333
9905.00,0.2333
9904.00,0.2333
9903.00,0.2333
9902.00,0.2333
9901.00,0.2333
9900.00,0.2334
9899.00,0.2333
9898.00,0.2333
9897.00,0.2332
9896.00,0.2332
9895.00,0.2333
9894.00,0.2335
9893.00,0.2336
9892.00,0.2337
9891.00,0.2337
9890.00,0.2336
9889.00,0.2336
9888.00,0.2335
9887.00,0.2336
9886.00,0.2335
9885.00,0.2334
9884.00,0.2333
9883.00,0.2331
9882.00,0.2329
9881.00,0.2327
9880.00,0.2326
9879.00,0.2326
9878.00,0.2325
9877.00,0.2325
9876.00,0.2324
9875.00,0.2324
9874.00,0.2324
9873.00,0.2325
9872.00,0.2328
9871.00,0.2330
9870.00,0.2331
9869.00,0.2332
9868.00,0.2331
9867.00,0.2331
9866.00,0.2331
9865.00,0.2332
9864.00,0.2332
9863.00,0.2331
9862.00,0.2330
9861.00,0.2330
9860.00,0.2329
9859.00,0.2329
9858.00,0.2328
9857.00,0.2327
9856.00,0.2327
9855.00,0.2327
9854.00,0.2328
9853.00,0.2330
9852.00,0.2332
9851.00,0.2332
9850.00,0.2332
9849.00,0.2331
9848.00,0.2331
9847.00,0.2332
9846.00,0.2333
9845.00,0.2333
9844.00,0.2333
9843.00,0.2331
9842.00,0.2329
9841.00,0.2327
9840.00,0.2326
9839.00,0.2327
9838.00,0.2327
9837.00,0.2327
9836.00,0.2326
9835.00,0.2325
9834.00,0.2324
9833.00,0.2324
9832.00,0.2324
9831.00,0.2324
9830.00,0.2324
9829.00,0.2323
9828.00,0.2323
9827.00,0.2322
9826.00,0.2322
9825.00,0.2322
9824.00,0.2322
9823.00,0.2321
9822.00,0.2321
9821.00,0.2320
9820.00,0.2320
9819.00,0.2321
9818.00,0.2321
9817.00,0.2322
9816.00,0.2322
9815.00,0.2323
9814.00,0.2324
9813.00,0.2326
9812.00,0.2327
9811.00,0.2327
9810.00,0.2327
9809.00,0.2326
9808.00,0.2325
9807.00,0.2324
9806.00,0.2324
9805.00,0.2325
9804.00,0.2325
9803.00,0.2325
9802.00,0.2324
9801.00,0.2322
9800.00,0.2321
9799.00,0.2321
9798.00,0.2321
9797.00,0.2322
9796.00,0.2323
9795.00,0.2323
9794.00,0.2323
9793.00,0.2323
9792.00,0.2323
9791.00,0.2324
9790.00,0.2325
9789.00,0.2327
9788.00,0.2327
9787.00,0.2326
9786.00,0.2326
9785.00,0.2325
9784.00,0.2324
9783.00,0.2323
9782.00,0.2321
9781.00,0.2319
9780.00,0.2319
9779.00,0.2319
9778.00,0.2321
9777.00,0.2322
9776.00,0.2323
9775.00,0.2323
9774.00,0.2322
9773.00,0.2323
9772.00,0.2324
9771.00,0.2324
9770.00,0.2324
9769.00,0.2324
9768.00,0.2323
9767.00,0.2322
9766.00,0.2321
9765.00,0.2320
9764.00,0.2319
9763.00,0.2318
9762.00,0.2318
9761.00,0.2318
9760.00,0.2318
9759.00,0.2318
9758.00,0.2318
9757.00,0.2318
9756.00,0.2319
9755.00,0.2320
9754.00,0.2320
9753.00,0.2321
9752.00,0.2322
9751.00,0.2322
9750.00,0.2322
9749.00,0.2322
9748.00,0.2322
9747.00,0.2322
9746.00,0.2322
9745.00,0.2321
9744.00,0.2319
9743.00,0.2318
9742.00,0.2317
9741.00,0.2318
9740.00,0.2318
9739.00,0.2317
9738.00,0.2316
9737.00,0.2315
9736.00,0.2313
9735.00,0.2312
9734.00,0.2312
9733.00,0.2313
9732.00,0.2314
9731.00,0.2314
9730.00,0.2315
9729.00,0.2315
9728.00,0.2314
9727.00,0.2314
9726.00,0.2314
9725.00,0.2314
9724.00,0.2315
9723.00,0.2316
9722.00,0.2316
9721.00,0.2315
9720.00,0.2314
9719.00,0.2313
9718.00,0.2312
9717.00,0.2313
9716.00,0.2313
9715.00,0.2314
9714.00,0.2313
9713.00,0.2312
9712.00,0.2311
9711.00,0.2309
9710.00,0.2308
9709.00,0.2307
9708.00,0.2307
9707.00,0.2306
9706.00,0.2305
9705.00,0.2305
9704.00,0.2305
9703.00,0.2306
9702.00,0.2308
9701.00,0.2310
9700.00,0.2311
9699.00,0.2312
9698.00,0.2311
9697.00,0.2310
9696.00,0.2309
9695.00,0.2309
9694.00,0.2309
9693.00,0.2310
9692.00,0.2310
9691.00,0.2309
9690.00,0.2308
9689.00,0.2307
9688.00,0.2307
9687.00,0.2308
9686.00,0.2310
9685.00,0.2311
9684.00,0.2311
9683.00,0.2310
9682.00,0.2308
9681.00,0.2308
9680.00,0.2309
9679.00,0.2310
9678.00,0.2312
9677.00,0.2313
9676.00,0.2313
9675.00,0.2312
9674.00,0.2311
9673.00,0.2311
9672.00,0.2310
9671.00,0.2310
9670.00,0.2309
9669.00,0.2307
9668.00,0.2306
9667.00,0.2306
9666.00,0.2306
9665.00,0.2306
9664.00,0.2306
9663.00,0.2306
9662.00,0.2306
9661.00,0.2306
9660.00,0.2306
9659.00,0.2305
9658.00,0.2305
9657.00,0.2304
9656.00,0.2304
9655.00,0.2303
9654.00,0.2303
9653.00,0.2304
9652.00,0.2305
9651.00,0.2306
9650.00,0.2306
9649.00,0.2306
9648.00,0.2305
9647.00,0.2304
9646.00,0.2303
9645.00,0.2303
9644.00,0.2303
9643.00,0.2303
9642.00,0.2304
9641.00,0.2304
9640.00,0.2304
9639.00,0.2304
9638.00,0.2305
9637.00,0.2305
9636.00,0.2305
9635.00,0.2305
9634.00,0.2303
9633.00,0.2301
9632.00,0.2300
9631.00,0.2298
9630.00,0.2298
9629.00,0.2298
9628.00,0.2298
9627.00,0.2299
9626.00,0.2300
9625.00,0.2300
9624.00,0.2300
9623.00,0.2300
9622.00,0.2300
9621.00,0.2301
9620.00,0.2303
9619.00,0.2304
9618.00,0.2303
9617.00,0.2301
9616.00,0.2300
9615.00,0.2300
9614.00,0.2302
9613.00,0.2305
9612.00,0.2305
9611.00,0.2303
9610.00,0.2300
9609.00,0.2298
9608.00,0.2298
9607.00,0.2299
9606.00,0.2300
9605.00,0.2300
9604.00,0.2300
9603.00,0.2298
9602.00,0.2297
9601.00,0.2297
9600.00,0.2298
9599.00,0.2298
9598.00,0.2299
9597.00,0.2299
9596.00,0.2299
9595.00,0.2298
9594.00,0.2297
9593.00,0.2297
9592.00,0.2297
9591.00,0.2298
9590.00,0.2299
9589.00,0.2298
9588.00,0.2297
9587.00,0.2295
9586.00,0.2294
9585.00,0.2294
9584.00,0.2294
9583.00,0.2295
9582.00,0.2295
9581.00,0.2294
9580.00,0.2293
9579.00,0.2292
9578.00,0.2292
9577.00,0.2293
9576.00,0.2294
9575.00,0.2293
9574.00,0.2292
9573.00,0.2291
9572.00,0.2291
9571.00,0.2291
9570.00,0.2292
9569.00,0.2293
9568.00,0.2294
9567.00,0.2293
9566.00,0.2293
9565.00,0.2293
9564.00,0.2294
9563.00,0.2294
9562.00,0.2295
9561.00,0.2295
9560.00,0.2295
9559.00,0.2295
9558.00,0.2295
9557.00,0.2296
9556.00,0.2295
9555.00,0.2295
9554.00,0.2296
9553.00,0.2296
9552.00,0.2296
9551.00,0.2296
9550.00,0.2296
9549.00,0.2296
9548.00,0.2296
9547.00,0.2296
9546.00,0.2296
9545.00,0.2297
9544.00,0.2297
9543.00,0.2297
9542.00,0.2297
9541.00,0.2296
9540.00,0.2295
9539.00,0.2294
9538.00,0.2294
9537.00,0.2295
9536.00,0.2295
9535.00,0.2295
9534.00,0.2295
9533.00,0.2295
9532.00,0.2296
9531.00,0.2297
9530.00,0.2298
9529.00,0.2299
9528.00,0.2298
9527.00,0.2296
9526.00,0.2294
9525.00,0.2293
9524.00,0.2293
9523.00,0.2293
9522.00,0.2293
9521.00,0.2293
9520.00,0.2291
9519.00,0.2290
9518.00,0.2290
9517.00,0.2290
9516.00,0.2290
9515.00,0.2290
9514.00,0.2290
9513.00,0.2289
9512.00,0.2289
9511.00,0.2290
9510.00,0.2291
9509.00,0.2292
9508.00,0.2293
9507.00,0.2293
9506.00,0.2293
9505.00,0.2293
9504.00,0.2292
9503.00,0.2291
9502.00,0.2290
9501.00,0.2289
9500.00,0.2288
9499.00,0.2287
9498.00,0.2286
9497.00,0.2286
9496.00,0.2286
9495.00,0.2287
9494.00,0.2287
9493.00,0.2288
9492.00,0.2288
9491.00,0.2288
9490.00,0.2288
9489.00,0.2289
9488.00,0.2289
9487.00,0.2290
9486.00,0.2289
9485.00,0.2288
9484.00,0.2287
9483.00,0.2287
9482.00,0.2288
9481.00,0.2289
9480.00,0.2290
9479.00,0.2288
9478.00,0.2286
9477.00,0.2285
9476.00,0.2285
9475.00,0.2286
9474.00,0.2287
9473.00,0.2287
9472.00,0.2286
9471.00,0.2284
9470.00,0.2283
9469.00,0.2283
9468.00,0.2283
9467.00,0.2284
9466.00,0.2284
9465.00,0.2284
9464.00,0.2284
9463.00,0.2283
9462.00,0.2282
9461.00,0.2282
9460.00,0.2282
9459.00,0.2282
9458.00,0.2282
9457.00,0.2282
9456.00,0.2282
9455.00,0.2282
9454.00,0.2283
9453.00,0.2284
9452.00,0.2284
9451.00,0.2284
9450.00,0.2284
9449.00,0.2283
9448.00,0.2284
9447.00,0.2284
9446.00,0.2285
9445.00,0.2284
9444.00,0.2283
9443.00,0.2282
9442.00,0.2282
9441.00,0.2282
9440.00,0.2283
9439.00,0.2283
9438.00,0.2283
9437.00,0.2283
9436.00,0.2283
9435.00,0.2285
9434.00,0.2286
9433.00,0.2286
9432.00,0.2285
9431.00,0.2285
9430.00,0.2284
9429.00,0.2283
9428.00,0.2282
9427.00,0.2281
9426.00,0.2280
9425.00,0.2279
9424.00,0.2280
9423.00,0.2280
9422.00,0.2281
9421.00,0.2281
9420.00,0.2280
9419.00,0.2280
9418.00,0.2280
9417.00,0.2279
9416.00,0.2279
9415.00,0.2279
9414.00,0.2278
9413.00,0.2277
9412.00,0.2277
9411.00,0.2276
9410.00,0.2277
9409.00,0.2278
9408.00,0.2280
9407.00,0.2280
9406.00,0.2281
9405.00,0.2280
9404.00,0.2280
9403.00,0.2279
9402.00,0.2279
9401.00,0.2278
9400.00,0.2277
9399.00,0.2276
9398.00,0.2274
9397.00,0.2273
9396.00,0.2272
9395.00,0.2272
9394.00,0.2272
9393.00,0.2273
9392.00,0.2273
9391.00,0.2274
9390.00,0.2274
9389.00,0.2275
9388.00,0.2276
9387.00,0.2276
9386.00,0.2277
9385.00,0.2278
9384.00,0.2278
9383.00,0.2278
9382.00,0.2277
9381.00,0.2275
9380.00,0.2274
9379.00,0.2273
9378.00,0.2273
9377.00,0.2273
9376.00,0.2272
9375.00,0.2270
9374.00,0.2267
9373.00,0.2266
9372.00,0.2266
9371.00,0.2267
9370.00,0.2268
9369.00,0.2269
9368.00,0.2269
9367.00,0.2270
9366.00,0.2270
9365.00,0.2272
9364.00,0.2272
9363.00,0.2273
9362.00,0.2273
9361.00,0.2273
9360.00,0.2273
9359.00,0.2273
9358.00,0.2272
9357.00,0.2273
9356.00,0.2273
9355.00,0.2274
9354.00,0.2275
9353.00,0.2275
9352.00,0.2274
9351.00,0.2274
9350.00,0.2274
9349.00,0.2273
9348.00,0.2271
9347.00,0.2270
9346.00,0.2269
9345.00,0.2269
9344.00,0.2270
9343.00,0.2271
9342.00,0.2271
9341.00,0.2271
9340.00,0.2270
9339.00,0.2270
9338.00,0.2271
9337.00,0.2271
9336.00,0.2271
9335.00,0.2270
9334.00,0.2270
9333.00,0.2269
9332.00,0.2270
9331.00,0.2269
9330.00,0.2269
9329.00,0.2268
9328.00,0.2267
9327.00,0.2267
9326.00,0.2267
9325.00,0.2267
9324.00,0.2266
9323.00,0.2265
9322.00,0.2264
9321.00,0.2265
9320.00,0.2266
9319.00,0.2267
9318.00,0.2268
9317.00,0.2269
9316.00,0.2269
9315.00,0.2269
9314.00,0.2269
9313.00,0.2268
9312.00,0.2267
9311.00,0.2266
9310.00,0.2266
9309.00,0.2266
9308.00,0.2267
9307.00,0.2268
9306.00,0.2268
9305.00,0.2268
9304.00,0.2269
9303.00,0.2269
9302.00,0.2270
9301.00,0.2271
9300.00,0.2270
9299.00,0.2268
9298.00,0.2266
9297.00,0.2264
9296.00,0.2263
9295.00,0.2264
9294.00,0.2264
9293.00,0.2265
9292.00,0.2265
9291.00,0.2266
9290.00,0.2267
9289.00,0.2268
9288.00,0.2268
9287.00,0.2269
9286.00,0.2268
9285.00,0.2267
9284.00,0.2266
9283.00,0.2265
9282.00,0.2264
9281.00,0.2264
9280.00,0.2264
9279.00,0.2263
9278.00,0.2263
9277.00,0.2262
9276.00,0.2262
9275.00,0.2263
9274.00,0.2263
9273.00,0.2263
9272.00,0.2263
9271.00,0.2263
9270.00,0.2263
9269.00,0.2265
9268.00,0.2266
9267.00,0.2267
9266.00,0.2266
9265.00,0.2266
9264.00,0.2267
9263.00,0.2267
9262.00,0.2268
9261.00,0.2267
9260.00,0.2266
9259.00,0.2265
9258.00,0.2264
9257.00,0.2263
9256.00,0.2262
9255.00,0.2262
9254.00,0.2262
9253.00,0.2261
9252.00,0.2261
9251.00,0.2260
9250.00,0.2260
9249.00,0.2260
9248.00,0.2261
9247.00,0.2262
9246.00,0.2262
9245.00,0.2263
9244.00,0.2263
9243.00,0.2263
9242.00,0.2263
9241.00,0.2263
9240.00,0.2262
9239.00,0.2262
9238.00,0.2262
9237.00,0.2262
9236.00,0.2261
9235.00,0.2260
9234.00,0.2259
9233.00,0.2259
9232.00,0.2259
9231.00,0.2260
9230.00,0.2260
9229.00,0.2261
9228.00,0.2260
9227.00,0.2260
9226.00,0.2259
9225.00,0.2259
9224.00,0.2260
9223.00,0.2260
9222.00,0.2259
9221.00,0.2259
9220.00,0.2259
9219.00,0.2259
9218.00,0.2259
9217.00,0.2259
9216.00,0.2259
9215.00,0.2259
9214.00,0.2259
9213.00,0.2260
9212.00,0.2261
9211.00,0.2261
9210.00,0.2262
9209.00,0.2262
9208.00,0.2262
9207.00,0.2262
9206.00,0.2262
9205.00,0.2262
9204.00,0.2262
9203.00,0.2261
9202.00,0.2260
9201.00,0.2259
9200.00,0.2259
9199.00,0.2260
9198.00,0.2260
9197.00,0.2260
9196.00,0.2259
9195.00,0.2258
9194.00,0.2258
9193.00,0.2257
9192.00,0.2256
9191.00,0.2255
9190.00,0.2254
9189.00,0.2252
9188.00,0.2252
9187.00,0.2251
9186.00,0.2251
9185.00,0.2252
9184.00,0.2253
9183.00,0.2255
9182.00,0.2257
9181.00,0.2258
9180.00,0.2259
9179.00,0.2258
9178.00,0.2257
9177.00,0.2257
9176.00,0.2256
9175.00,0.2256
9174.00,0.2255
9173.00,0.2255
9172.00,0.2254
9171.00,0.2254
9170.00,0.2255
9169.00,0.2256
9168.00,0.2257
9167.00,0.2258
9166.00,0.2258
9165.00,0.2257
9164.00,0.2256
9163.00,0.2255
9162.00,0.2255
9161.00,0.2255
9160.00,0.2255
9159.00,0.2255
9158.00,0.2255
9157.00,0.2255
9156.00,0.2255
9155.00,0.2255
9154.00,0.2255
9153.00,0.2255
9152.00,0.2256
9151.00,0.2257
9150.00,0.2257
9149.00,0.2255
9148.00,0.2254
9147.00,0.2253
9146.00,0.2253
9145.00,0.2254
9144.00,0.2256
9143.00,0.2256
9142.00,0.2256
9141.00,0.2255
9140.00,0.2254
9139.00,0.2254
9138.00,0.2255
9137.00,0.2256
9136.00,0.2257
9135.00,0.2257
9134.00,0.2256
9133.00,0.2255
9132.00,0.2255
9131.00,0.2254
9130.00,0.2254
9129.00,0.2254
9128.00,0.2254
9127.00,0.2253
9126.00,0.2252
9125.00,0.2252
9124.00,0.2251
9123.00,0.2250
9122.00,0.2250
9121.00,0.2250
9120.00,0.2250
9119.00,0.2250
9118.00,0.2251
9117.00,0.2251
9116.00,0.2251
9115.00,0.2252
9114.00,0.2252
9113.00,0.2253
9112.00,0.2253
9111.00,0.2253
9110.00,0.2254
9109.00,0.2254
9108.00,0.2253
9107.00,0.2253
9106.00,0.2252
9105.00,0.2251
9104.00,0.2251
9103.00,0.2250
9102.00,0.2250
9101.00,0.2249
9100.00,0.2248
9099.00,0.2248
9098.00,0.2248
9097.00,0.2249
9096.00,0.2250
9095.00,0.2251
9094.00,0.2250
9093.00,0.2250
9092.00,0.2251
9091.00,0.2252
9090.00,0.2253
9089.00,0.2254
9088.00,0.2254
9087.00,0.2252
9086.00,0.2251
9085.00,0.2250
9084.00,0.2249
9083.00,0.2249
9082.00,0.2249
9081.00,0.2249
9080.00,0.2248
9079.00,0.2246
9078.00,0.2245
9077.00,0.2244
9076.00,0.2245
9075.00,0.2246
9074.00,0.2246
9073.00,0.2246
9072.00,0.2244
9071.00,0.2243
9070.00,0.2243
9069.00,0.2244
9068.00,0.2244
9067.00,0.2245
9066.00,0.2245
9065.00,0.2246
9064.00,0.2247
9063.00,0.2247
9062.00,0.2247
9061.00,0.2246
9060.00,0.2246
9059.00,0.2246
9058.00,0.2246
9057.00,0.2246
9056.00,0.2246
9055.00,0.2245
9054.00,0.2245
9053.00,0.2245
9052.00,0.2246
9051.00,0.2247
9050.00,0.2248
9049.00,0.2248
9048.00,0.2249
9047.00,0.2249
9046.00,0.2249
9045.00,0.2249
9044.00,0.2249
9043.00,0.2249
9042.00,0.2249
9041.00,0.2248
9040.00,0.2248
9039.00,0.2247
9038.00,0.2247
9037.00,0.2248
9036.00,0.2248
9035.00,0.2248
9034.00,0.2248
9033.00,0.2248
9032.00,0.2248
9031.00,0.2249
9030.00,0.2249
9029.00,0.2249
9028.00,0.2248
9027.00,0.2246
9026.00,0.2245
9025.00,0.2244
9024.00,0.2244
9023.00,0.2243
9022.00,0.2241
9021.00,0.2241
9020.00,0.2241
9019.00,0.2241
9018.00,0.2242
9017.00,0.2243
9016.00,0.2244
9015.00,0.2244
9014.00,0.2244
9013.00,0.2244
9012.00,0.2245
9011.00,0.2244
9010.00,0.2244
9009.00,0.2243
9008.00,0.2243
9007.00,0.2242
9006.00,0.2242
9005.00,0.2242
9004.00,0.2242
9003.00,0.2242
9002.00,0.2242
9001.00,0.2242
9000.00,0.2242
8999.00,0.2242
8998.00,0.2242
8997.00,0.2243
8996.00,0.2243
8995.00,0.2243
8994.00,0.2242
8993.00,0.2241
8992.00,0.2241
8991.00,0.2242
8990.00,0.2242
8989.00,0.2242
8988.00,0.2242
8987.00,0.2242
8986.00,0.2242
8985.00,0.2242
8984.00,0.2242
8983.00,0.2243
8982.00,0.2243
8981.00,0.2243
8980.00,0.2244
8979.00,0.2244
8978.00,0.2243
8977.00,0.2242
8976.00,0.2241
8975.00,0.2241
8974.00,0.2242
8973.00,0.2243
8972.00,0.2244
8971.00,0.2243
8970.00,0.2242
8969.00,0.2242
8968.00,0.2242
8967.00,0.2242
8966.00,0.2241
8965.00,0.2241
8964.00,0.2240
8963.00,0.2240
8962.00,0.2240
8961.00,0.2240
8960.00,0.2240
8959.00,0.2241
8958.00,0.2242
8957.00,0.2243
8956.00,0.2243
8955.00,0.2243
8954.00,0.2242
8953.00,0.2241
8952.00,0.2239
8951.00,0.2238
8950.00,0.2238
8949.00,0.2237
8948.00,0.2237
8947.00,0.2237
8946.00,0.2237
8945.00,0.2238
8944.00,0.2240
8943.00,0.2242
8942.00,0.2244
8941.00,0.2245
8940.00,0.2245
8939.00,0.2244
8938.00,0.2244
8937.00,0.2244
8936.00,0.2244
8935.00,0.2243
8934.00,0.2242
8933.00,0.2240
8932.00,0.2239
8931.00,0.2239
8930.00,0.2239
8929.00,0.2240
8928.00,0.2240
8927.00,0.2239
8926.00,0.2240
8925.00,0.2241
8924.00,0.2242
8923.00,0.2243
8922.00,0.2243
8921.00,0.2243
8920.00,0.2242
8919.00,0.2241
8918.00,0.2241
8917.00,0.2240
8916.00,0.2240
8915.00,0.2240
8914.00,0.2240
8913.00,0.2240
8912.00,0.2240
8911.00,0.2241
8910.00,0.2242
8909.00,0.2242
8908.00,0.2242
8907.00,0.2241
8906.00,0.2241
8905.00,0.2241
8904.00,0.2240
8903.00,0.2240
8902.00,0.2240
8901.00,0.2240
8900.00,0.2241
8899.00,0.2242
8898.00,0.2242
8897.00,0.2242
8896.00,0.2241
8895.00,0.2240
8894.00,0.2239
8893.00,0.2239
8892.00,0.2240
8891.00,0.2241
8890.00,0.2242
8889.00,0.2242
8888.00,0.2242
8887.00,0.2243
8886.00,0.2243
8885.00,0.2244
8884.00,0.2245
8883.00,0.2245
8882.00,0.2245
8881.00,0.2244
8880.00,0.2244
8879.00,0.2244
8878.00,0.2244
8877.00,0.2244
8876.00,0.2244
8875.00,0.2243
8874.00,0.2242
8873.00,0.2241
8872.00,0.2240
8871.00,0.2241
8870.00,0.2241
8869.00,0.2242
8868.00,0.2242
8867.00,0.2242
8866.00,0.2242
8865.00,0.2243
8864.00,0.2244
8863.00,0.2244
8862.00,0.2244
8861.00,0.2243
8860.00,0.2242
8859.00,0.2242
8858.00,0.2243
8857.00,0.2244
8856.00,0.2245
8855.00,0.2245
8854.00,0.2245
8853.00,0.2245
8852.00,0.2245
8851.00,0.2245
8850.00,0.2246
8849.00,0.2246
8848.00,0.2245
8847.00,0.2244
8846.00,0.2243
8845.00,0.2242
8844.00,0.2242
8843.00,0.2243
8842.00,0.2243
8841.00,0.2243
8840.00,0.2242
8839.00,0.2243
8838.00,0.2244
8837.00,0.2245
8836.00,0.2247
8835.00,0.2248
8834.00,0.2249
8833.00,0.2250
8832.00,0.2251
8831.00,0.2252
8830.00,0.2253
8829.00,0.2253
8828.00,0.2253
8827.00,0.2253
8826.00,0.2253
8825.00,0.2253
8824.00,0.2254
8823.00,0.2254
8822.00,0.2254
8821.00,0.2254
8820.00,0.2255
8819.00,0.2256
8818.00,0.2258
8817.00,0.2259
8816.00,0.2258
8815.00,0.2258
8814.00,0.2258
8813.00,0.2258
8812.00,0.2258
8811.00,0.2258
8810.00,0.2257
8809.00,0.2256
8808.00,0.2256
8807.00,0.2256
8806.00,0.2256
8805.00,0.2256
8804.00,0.2256
8803.00,0.2256
8802.00,0.2256
8801.00,0.2256
8800.00,0.2255
8799.00,0.2255
8798.00,0.2255
8797.00,0.2255
8796.00,0.2256
8795.00,0.2256
8794.00,0.2257
8793.00,0.2258
8792.00,0.2259
8791.00,0.2259
8790.00,0.2260
8789.00,0.2260
8788.00,0.2261
8787.00,0.2261
8786.00,0.2262
8785.00,0.2262
8784.00,0.2263
8783.00,0.2263
8782.00,0.2264
8781.00,0.2265
8780.00,0.2266
8779.00,0.2266
8778.00,0.2267
8777.00,0.2267
8776.00,0.2268
8775.00,0.2268
8774.00,0.2268
8773.00,0.2268
8772.00,0.2268
8771.00,0.2268
8770.00,0.2268
8769.00,0.2269
8768.00,0.2270
8767.00,0.2270
8766.00,0.2271
8765.00,0.2272
8764.00,0.2272
8763.00,0.2273
8762.00,0.2274
8761.00,0.2275
8760.00,0.2276
8759.00,0.2277
8758.00,0.2277
8757.00,0.2277
8756.00,0.2277
8755.00,0.2277
8754.00,0.2277
8753.00,0.2277
8752.00,0.2277
8751.00,0.2277
8750.00,0.2277
8749.00,0.2277
8748.00,0.2277
8747.00,0.2278
8746.00,0.2280
8745.00,0.2282
8744.00,0.2284
8743.00,0.2285
8742.00,0.2286
8741.00,0.2286
8740.00,0.2286
8739.00,0.2287
8738.00,0.2287
8737.00,0.2288
8736.00,0.2288
8735.00,0.2289
8734.00,0.2289
8733.00,0.2289
8732.00,0.2289
8731.00,0.2289
8730.00,0.2289
8729.00,0.2289
8728.00,0.2289
8727.00,0.2289
8726.00,0.2289
8725.00,0.2288
8724.00,0.2287
8723.00,0.2287
8722.00,0.2288
8721.00,0.2289
8720.00,0.2290
8719.00,0.2291
8718.00,0.2292
8717.00,0.2293
8716.00,0.2294
8715.00,0.2295
8714.00,0.2296
8713.00,0.2297
8712.00,0.2298
8711.00,0.2299
8710.00,0.2300
8709.00,0.2301
8708.00,0.2301
8707.00,0.2301
8706.00,0.2301
8705.00,0.2303
8704.00,0.2304
8703.00,0.2305
8702.00,0.2306
8701.00,0.2305
8700.00,0.2305
8699.00,0.2306
8698.00,0.2308
8697.00,0.2309
8696.00,0.2310
8695.00,0.2309
8694.00,0.2309
8693.00,0.2309
8692.00,0.2310
8691.00,0.2310
8690.00,0.2311
8689.00,0.2311
8688.00,0.2312
8687.00,0.2313
8686.00,0.2315
8685.00,0.2316
8684.00,0.2316
8683.00,0.2316
8682.00,0.2317
8681.00,0.2318
8680.00,0.2320
8679.00,0.2321
8678.00,0.2321
8677.00,0.2320
8676.00,0.2320
8675.00,0.2321
8674.00,0.2322
8673.00,0.2324
8672.00,0.2325
8671.00,0.2326
8670.00,0.2327
8669.00,0.2328
8668.00,0.2329
8667.00,0.2330
8666.00,0.2331
8665.00,0.2332
8664.00,0.2331
8663.00,0.2331
8662.00,0.2331
8661.00,0.2332
8660.00,0.2333
8659.00,0.2334
8658.00,0.2335
8657.00,0.2335
8656.00,0.2337
8655.00,0.2338
8654.00,0.2339
8653.00,0.2340
8652.00,0.2341
8651.00,0.2341
8650.00,0.2342
8649.00,0.2344
8648.00,0.2345
8647.00,0.2346
8646.00,0.2346
8645.00,0.2347
8644.00,0.2347
8643.00,0.2348
8642.00,0.2348
8641.00,0.2348
8640.00,0.2349
8639.00,0.2349
8638.00,0.2351
8637.00,0.2352
8636.00,0.2353
8635.00,0.2353
8634.00,0.2354
8633.00,0.2354
8632.00,0.2356
8631.00,0.2357
8630.00,0.2359
8629.00,0.2359
8628.00,0.2359
8627.00,0.2359
8626.00,0.2360
8625.00,0.2360
8624.00,0.2361
8623.00,0.2362
8622.00,0.2362
8621.00,0.2362
8620.00,0.2362
8619.00,0.2364
8618.00,0.2365
8617.00,0.2366
8616.00,0.2367
8615.00,0.2366
8614.00,0.2366
8613.00,0.2366
8612.00,0.2367
8611.00,0.2367
8610.00,0.2369
8609.00,0.2370
8608.00,0.2371
8607.00,0.2373
8606.00,0.2374
8605.00,0.2375
8604.00,0.2375
8603.00,0.2375
8602.00,0.2375
8601.00,0.2376
8600.00,0.2376
8599.00,0.2377
8598.00,0.2377
8597.00,0.2378
8596.00,0.2378
8595.00,0.2379
8594.00,0.2380
8593.00,0.2382
8592.00,0.2383
8591.00,0.2383
8590.00,0.2383
8589.00,0.2382
8588.00,0.2382
8587.00,0.2383
8586.00,0.2384
8585.00,0.2385
8584.00,0.2385
8583.00,0.2386
8582.00,0.2386
8581.00,0.2387
8580.00,0.2389
8579.00,0.2390
8578.00,0.2391
8577.00,0.2391
8576.00,0.2392
8575.00,0.2392
8574.00,0.2392
8573.00,0.2393
8572.00,0.2394
8571.00,0.2394
8570.00,0.2395
8569.00,0.2395
8568.00,0.2395
8567.00,0.2396
8566.00,0.2397
8565.00,0.2397
8564.00,0.2397
8563.00,0.2397
8562.00,0.2397
8561.00,0.2398
8560.00,0.2399
8559.00,0.2399
8558.00,0.2399
8557.00,0.2399
8556.00,0.2400
8555.00,0.2400
8554.00,0.2401
8553.00,0.2401
8552.00,0.2402
8551.00,0.2404
8550.00,0.2405
8549.00,0.2406
8548.00,0.2407
8547.00,0.2407
8546.00,0.2407
8545.00,0.2407
8544.00,0.2407
8543.00,0.2407
8542.00,0.2408
8541.00,0.2408
8540.00,0.2409
8539.00,0.2409
8538.00,0.2410
8537.00,0.2411
8536.00,0.2411
8535.00,0.2412
8534.00,0.2413
8533.00,0.2414
8532.00,0.2415
8531.00,0.2415
8530.00,0.2416
8529.00,0.2417
8528.00,0.2418
8527.00,0.2419
8526.00,0.2420
8525.00,0.2420
8524.00,0.2420
8523.00,0.2420
8522.00,0.2420
8521.00,0.2420
8520.00,0.2420
8519.00,0.2420
8518.00,0.2420
8517.00,0.2421
8516.00,0.2422
8515.00,0.2423
8514.00,0.2424
8513.00,0.2424
8512.00,0.2425
8511.00,0.2426
8510.00,0.2427
8509.00,0.2428
8508.00,0.2428
8507.00,0.2428
8506.00,0.2429
8505.00,0.2430
8504.00,0.2430
8503.00,0.2430
8502.00,0.2430
8501.00,0.2429
8500.00,0.2429
8499.00,0.2430
8498.00,0.2430
8497.00,0.2431
8496.00,0.2432
8495.00,0.2432
8494.00,0.2433
8493.00,0.2435
8492.00,0.2437
8491.00,0.2438
8490.00,0.2439
8489.00,0.2438
8488.00,0.2438
8487.00,0.2438
8486.00,0.2439
8485.00,0.2439
8484.00,0.2439
8483.00,0.2439
8482.00,0.2439
8481.00,0.2440
8480.00,0.2441
8479.00,0.2442
8478.00,0.2443
8477.00,0.2443
8476.00,0.2443
8475.00,0.2444
8474.00,0.2444
8473.00,0.2444
8472.00,0.2445
8471.00,0.2445
8470.00,0.2445
8469.00,0.2445
8468.00,0.2446
8467.00,0.2446
8466.00,0.2447
8465.00,0.2448
8464.00,0.2448
8463.00,0.2448
8462.00,0.2448
8461.00,0.2449
8460.00,0.2449
8459.00,0.2449
8458.00,0.2450
8457.00,0.2451
8456.00,0.2451
8455.00,0.2452
8454.00,0.2452
8453.00,0.2453
8452.00,0.2453
8451.00,0.2454
8450.00,0.2454
8449.00,0.2455
8448.00,0.2455
8447.00,0.2456
8446.00,0.2456
8445.00,0.2457
8444.00,0.2458
8443.00,0.2459
8442.00,0.2459
8441.00,0.2460
8440.00,0.2460
8439.00,0.2460
8438.00,0.2460
8437.00,0.2460
8436.00,0.2461
8435.00,0.2461
8434.00,0.2462
8433.00,0.2462
8432.00,0.2463
8431.00,0.2464
8430.00,0.2464
8429.00,0.2465
8428.00,0.2465
8427.00,0.2466
8426.00,0.2466
8425.00,0.2468
8424.00,0.2469
8423.00,0.2470
8422.00,0.2471
8421.00,0.2471
8420.00,0.2472
8419.00,0.2473
8418.00,0.2472
8417.00,0.2471
8416.00,0.2470
8415.00,0.2469
8414.00,0.2468
8413.00,0.2468
8412.00,0.2467
8411.00,0.2467
8410.00,0.2467
8409.00,0.2468
8408.00,0.2469
8407.00,0.2471
8406.00,0.2472
8405.00,0.2473
8404.00,0.2473
8403.00,0.2472
8402.00,0.2472
8401.00,0.2472
8400.00,0.2473
8399.00,0.2474
8398.00,0.2474
8397.00,0.2475
8396.00,0.2475
8395.00,0.2476
8394.00,0.2478
8393.00,0.2479
8392.00,0.2479
8391.00,0.2478
8390.00,0.2476
8389.00,0.2475
8388.00,0.2475
8387.00,0.2475
8386.00,0.2476
8385.00,0.2475
8384.00,0.2475
8383.00,0.2475
8382.00,0.2476
8381.00,0.2476
8380.00,0.2477
8379.00,0.2478
8378.00,0.2478
8377.00,0.2479
8376.00,0.2479
8375.00,0.2479
8374.00,0.2479
8373.00,0.2478
8372.00,0.2479
8371.00,0.2479
8370.00,0.2480
8369.00,0.2479
8368.00,0.2479
8367.00,0.2479
8366.00,0.2479
8365.00,0.2479
8364.00,0.2480
8363.00,0.2480
8362.00,0.2480
8361.00,0.2480
8360.00,0.2479
8359.00,0.2479
8358.00,0.2478
8357.00,0.2478
8356.00,0.2479
8355.00,0.2480
8354.00,0.2481
8353.00,0.2482
8352.00,0.2482
8351.00,0.2483
8350.00,0.2483
8349.00,0.2484
8348.00,0.2484
8347.00,0.2484
8346.00,0.2484
8345.00,0.2484
8344.00,0.2484
8343.00,0.2484
8342.00,0.2484
8341.00,0.2484
8340.00,0.2484
8339.00,0.2484
8338.00,0.2485
8337.00,0.2484
8336.00,0.2484
8335.00,0.2482
8334.00,0.2482
8333.00,0.2481
8332.00,0.2481
8331.00,0.2482
8330.00,0.2481
8329.00,0.2481
8328.00,0.2480
8327.00,0.2480
8326.00,0.2480
8325.00,0.2481
8324.00,0.2481
8323.00,0.2481
8322.00,0.2481
8321.00,0.2481
8320.00,0.2482
8319.00,0.2482
8318.00,0.2483
8317.00,0.2484
8316.00,0.2484
8315.00,0.2483
8314.00,0.2483
8313.00,0.2482
8312.00,0.2481
8311.00,0.2481
8310.00,0.2481
8309.00,0.2480
8308.00,0.2480
8307.00,0.2479
8306.00,0.2480
8305.00,0.2480
8304.00,0.2481
8303.00,0.2481
8302.00,0.2481
8301.00,0.2481
8300.00,0.2481
8299.00,0.2481
8298.00,0.2480
8297.00,0.2480
8296.00,0.2480
8295.00,0.2481
8294.00,0.2481
8293.00,0.2481
8292.00,0.2481
8291.00,0.2480
8290.00,0.2480
8289.00,0.2480
8288.00,0.2480
8287.00,0.2481
8286.00,0.2481
8285.00,0.2480
8284.00,0.2480
8283.00,0.2480
8282.00,0.2481
8281.00,0.2482
8280.00,0.2482
8279.00,0.2481
8278.00,0.2480
8277.00,0.2479
8276.00,0.2478
8275.00,0.2478
8274.00,0.2478
8273.00,0.2477
8272.00,0.2476
8271.00,0.2475
8270.00,0.2475
8269.00,0.2476
8268.00,0.2476
8267.00,0.2477
8266.00,0.2477
8265.00,0.2478
8264.00,0.2478
8263.00,0.2478
8262.00,0.2478
8261.00,0.2478
8260.00,0.2478
8259.00,0.2478
8258.00,0.2477
8257.00,0.2477
8256.00,0.2477
8255.00,0.2477
8254.00,0.2478
8253.00,0.2477
8252.00,0.2477
8251.00,0.2477
8250.00,0.2476
8249.00,0.2476
8248.00,0.2475
8247.00,0.2475
8246.00,0.2475
8245.00,0.2474
8244.00,0.2474
8243.00,0.2474
8242.00,0.2473
8241.00,0.2472
8240.00,0.2471
8239.00,0.2470
8238.00,0.2469
8237.00,0.2469
8236.00,0.2469
8235.00,0.2469
8234.00,0.2469
8233.00,0.2470
8232.00,0.2471
8231.00,0.2471
8230.00,0.2471
8229.00,0.2471
8228.00,0.2470
8227.00,0.2469
8226.00,0.2469
8225.00,0.2468
8224.00,0.2468
8223.00,0.2468
8222.00,0.2468
8221.00,0.2469
8220.00,0.2469
8219.00,0.2470
8218.00,0.2470
8217.00,0.2470
8216.00,0.2469
8215.00,0.2468
8214.00,0.2466
8213.00,0.2465
8212.00,0.2465
8211.00,0.2464
8210.00,0.2463
8209.00,0.2462
8208.00,0.2462
8207.00,0.2463
8206.00,0.2464
8205.00,0.2464
8204.00,0.2464
8203.00,0.2464
8202.00,0.2464
8201.00,0.2465
8200.00,0.2465
8199.00,0.2464
8198.00,0.2464
8197.00,0.2463
8196.00,0.2463
8195.00,0.2463
8194.00,0.2463
8193.00,0.2461
8192.00,0.2460
8191.00,0.2460
8190.00,0.2460
8189.00,0.2459
8188.00,0.2459
8187.00,0.2458
8186.00,0.2458
8185.00,0.2458
8184.00,0.2458
8183.00,0.2458
8182.00,0.2457
8181.00,0.2457
8180.00,0.2457
8179.00,0.2456
8178.00,0.2455
8177.00,0.2454
8176.00,0.2454
8175.00,0.2453
8174.00,0.2453
8173.00,0.2453
8172.00,0.2453
8171.00,0.2453
8170.00,0.2452
8169.00,0.2452
8168.00,0.2452
8167.00,0.2452
8166.00,0.2452
8165.00,0.2451
8164.00,0.2451
8163.00,0.2450
8162.00,0.2450
8161.00,0.2451
8160.00,0.2451
8159.00,0.2451
8158.00,0.2450
8157.00,0.2449
8156.00,0.2448
8155.00,0.2447
8154.00,0.2447
8153.00,0.2447
8152.00,0.2446
8151.00,0.2446
8150.00,0.2445
8149.00,0.2444
8148.00,0.2444
8147.00,0.2444
8146.00,0.2444
8145.00,0.2443
8144.00,0.2442
8143.00,0.2441
8142.00,0.2440
8141.00,0.2439
8140.00,0.2440
8139.00,0.2441
8138.00,0.2441
8137.00,0.2441
8136.00,0.2441
8135.00,0.2440
8134.00,0.2439
8133.00,0.2438
8132.00,0.2438
8131.00,0.2437
8130.00,0.2436
8129.00,0.2436
8128.00,0.2436
8127.00,0.2436
8126.00,0.2436
8125.00,0.2436
8124.00,0.2436
8123.00,0.2436
8122.00,0.2436
8121.00,0.2435
8120.00,0.2433
8119.00,0.2432
8118.00,0.2432
8117.00,0.2433
8116.00,0.2433
8115.00,0.2432
8114.00,0.2432
8113.00,0.2431
8112.00,0.2431
8111.00,0.2431
8110.00,0.2431
8109.00,0.2431
8108.00,0.2430
8107.00,0.2429
8106.00,0.2429
8105.00,0.2429
8104.00,0.2429
8103.00,0.2429
8102.00,0.2429
8101.00,0.2429
8100.00,0.2429
8099.00,0.2429
8098.00,0.2428
8097.00,0.2428
8096.00,0.2427
8095.00,0.2426
8094.00,0.2425
8093.00,0.2424
8092.00,0.2424
8091.00,0.2423
8090.00,0.2423
8089.00,0.2422
8088.00,0.2422
8087.00,0.2421
8086.00,0.2421
8085.00,0.2420
8084.00,0.2419
8083.00,0.2419
8082.00,0.2419
8081.00,0.2419
8080.00,0.2420
8079.00,0.2420
8078.00,0.2420
8077.00,0.2420
8076.00,0.2420
8075.00,0.2419
8074.00,0.2419
8073.00,0.2418
8072.00,0.2417
8071.00,0.2416
8070.00,0.2415
8069.00,0.2415
8068.00,0.2415
8067.00,0.2415
8066.00,0.2415
8065.00,0.2415
8064.00,0.2415
8063.00,0.2414
8062.00,0.2414
8061.00,0.2413
8060.00,0.2413
8059.00,0.2413
8058.00,0.2413
8057.00,0.2412
8056.00,0.2411
8055.00,0.2409
8054.00,0.2408
8053.00,0.2408
8052.00,0.2408
8051.00,0.2408
8050.00,0.2407
8049.00,0.2406
8048.00,0.2405
8047.00,0.2405
8046.00,0.2406
8045.00,0.2407
8044.00,0.2407
8043.00,0.2407
8042.00,0.2407
8041.00,0.2406
8040.00,0.2406
8039.00,0.2406
8038.00,0.2406
8037.00,0.2407
8036.00,0.2407
8035.00,0.2406
8034.00,0.2405
8033.00,0.2405
8032.00,0.2405
8031.00,0.2405
8030.00,0.2405
8029.00,0.2405
8028.00,0.2404
8027.00,0.2404
8026.00,0.2404
8025.00,0.2404
8024.00,0.2403
8023.00,0.2403
8022.00,0.2402
8021.00,0.2402
8020.00,0.2401
8019.00,0.2401
8018.00,0.2400
8017.00,0.2400
8016.00,0.2399
8015.00,0.2399
8014.00,0.2399
8013.00,0.2400
8012.00,0.2400
8011.00,0.2400
8010.00,0.2400
8009.00,0.2399
8008.00,0.2399
8007.00,0.2398
8006.00,0.2398
8005.00,0.2397
8004.00,0.2396
8003.00,0.2395
8002.00,0.2395
8001.00,0.2395
8000.00,0.2394
7999.00,0.2394
7998.00,0.2394
7997.00,0.2394
7996.00,0.2394
7995.00,0.2394
7994.00,0.2393
7993.00,0.2391
7992.00,0.2391
7991.00,0.2392
7990.00,0.2392
7989.00,0.2392
7988.00,0.2391
7987.00,0.2390
7986.00,0.2390
7985.00,0.2391
7984.00,0.2391
7983.00,0.2390
7982.00,0.2389
7981.00,0.2388
7980.00,0.2388
7979.00,0.2388
7978.00,0.2388
7977.00,0.2388
7976.00,0.2387
7975.00,0.2387
7974.00,0.2386
7973.00,0.2386
7972.00,0.2386
7971.00,0.2386
7970.00,0.2386
7969.00,0.2386
7968.00,0.2385
7967.00,0.2385
7966.00,0.2385
7965.00,0.2385
7964.00,0.2385
7963.00,0.2385
7962.00,0.2385
7961.00,0.2384
7960.00,0.2384
7959.00,0.2383
7958.00,0.2383
7957.00,0.2383
7956.00,0.2383
7955.00,0.2383
7954.00,0.2382
7953.00,0.2382
7952.00,0.2382
7951.00,0.2382
7950.00,0.2382
7949.00,0.2382
7948.00,0.2381
7947.00,0.2381
7946.00,0.2381
7945.00,0.2381
7944.00,0.2381
7943.00,0.2381
7942.00,0.2381
7941.00,0.2380
7940.00,0.2379
7939.00,0.2379
7938.00,0.2379
7937.00,0.2379
7936.00,0.2379
7935.00,0.2378
7934.00,0.2377
7933.00,0.2376
7932.00,0.2376
7931.00,0.2376
7930.00,0.2376
7929.00,0.2375
7928.00,0.2375
7927.00,0.2375
7926.00,0.2375
7925.00,0.2375
7924.00,0.2375
7923.00,0.2375
7922.00,0.2375
7921.00,0.2374
7920.00,0.2374
7919.00,0.2373
7918.00,0.2372
7917.00,0.2372
7916.00,0.2372
7915.00,0.2373
7914.00,0.2373
7913.00,0.2373
7912.00,0.2373
7911.00,0.2373
7910.00,0.2372
7909.00,0.2372
7908.00,0.2372
7907.00,0.2371
7906.00,0.2371
7905.00,0.2371
7904.00,0.2371
7903.00,0.2371
7902.00,0.2371
7901.00,0.2371
7900.00,0.2371
7899.00,0.2370
7898.00,0.2370
7897.00,0.2369
7896.00,0.2368
7895.00,0.2368
7894.00,0.2368
7893.00,0.2368
7892.00,0.2367
7891.00,0.2366
7890.00,0.2366
7889.00,0.2366
7888.00,0.2367
7887.00,0.2367
7886.00,0.2366
7885.00,0.2366
7884.00,0.2366
7883.00,0.2366
7882.00,0.2367
7881.00,0.2366
7880.00,0.2366
7879.00,0.2365
7878.00,0.2365
7877.00,0.2364
7876.00,0.2364
7875.00,0.2364
7874.00,0.2365
7873.00,0.2365
7872.00,0.2364
7871.00,0.2364
7870.00,0.2364
7869.00,0.2364
7868.00,0.2364
7867.00,0.2363
7866.00,0.2363
7865.00,0.2362
7864.00,0.2362
7863.00,0.2362
7862.00,0.2361
7861.00,0.2361
7860.00,0.2361
7859.00,0.2361
7858.00,0.2361
7857.00,0.2360
7856.00,0.2359
7855.00,0.2359
7854.00,0.2358
7853.00,0.2358
7852.00,0.2357
7851.00,0.2357
7850.00,0.2356
7849.00,0.2356
7848.00,0.2356
7847.00,0.2356
7846.00,0.2356
7845.00,0.2356
7844.00,0.2356
7843.00,0.2356
7842.00,0.2357
7841.00,0.2357
7840.00,0.2356
7839.00,0.2355
7838.00,0.2354
7837.00,0.2354
7836.00,0.2354
7835.00,0.2353
7834.00,0.2353
7833.00,0.2353
7832.00,0.2352
7831.00,0.2352
7830.00,0.2352
7829.00,0.2352
7828.00,0.2352
7827.00,0.2351
7826.00,0.2351
7825.00,0.2350
7824.00,0.2349
7823.00,0.2349
7822.00,0.2350
7821.00,0.2350
7820.00,0.2350
7819.00,0.2350
7818.00,0.2350
7817.00,0.2350
7816.00,0.2350
7815.00,0.2350
7814.00,0.2350
7813.00,0.2349
7812.00,0.2348
7811.00,0.2347
7810.00,0.2346
7809.00,0.2345
7808.00,0.2344
7807.00,0.2343
7806.00,0.2342
7805.00,0.2342
7804.00,0.2341
7803.00,0.2341
7802.00,0.2341
7801.00,0.2342
7800.00,0.2343
7799.00,0.2343
7798.00,0.2344
7797.00,0.2344
7796.00,0.2344
7795.00,0.2344
7794.00,0.2343
7793.00,0.2342
7792.00,0.2341
7791.00,0.2340
7790.00,0.2340
7789.00,0.2339
7788.00,0.2338
7787.00,0.2338
7786.00,0.2338
7785.00,0.2338
7784.00,0.2339
7783.00,0.2338
7782.00,0.2338
7781.00,0.2337
7780.00,0.2336
7779.00,0.2335
7778.00,0.2334
7777.00,0.2334
7776.00,0.2334
7775.00,0.2335
7774.00,0.2335
7773.00,0.2335
7772.00,0.2335
7771.00,0.2335
7770.00,0.2335
7769.00,0.2335
7768.00,0.2334
7767.00,0.2333
7766.00,0.2332
7765.00,0.2332
7764.00,0.2331
7763.00,0.2331
7762.00,0.2331
7761.00,0.2331
7760.00,0.2331
7759.00,0.2331
7758.00,0.2331
7757.00,0.2331
7756.00,0.2331
7755.00,0.2331
7754.00,0.2331
7753.00,0.2330
7752.00,0.2330
7751.00,0.2330
7750.00,0.2330
7749.00,0.2329
7748.00,0.2328
7747.00,0.2327
7746.00,0.2326
7745.00,0.2325
7744.00,0.2325
7743.00,0.2324
7742.00,0.2324
7741.00,0.2324
7740.00,0.2324
7739.00,0.2324
7738.00,0.2324
7737.00,0.2324
7736.00,0.2325
7735.00,0.2325
7734.00,0.2325
7733.00,0.2324
7732.00,0.2324
7731.00,0.2324
7730.00,0.2324
7729.00,0.2323
7728.00,0.2323
7727.00,0.2322
7726.00,0.2321
7725.00,0.2320
7724.00,0.2320
7723.00,0.2320
7722.00,0.2320
7721.00,0.2321
7720.00,0.2321
7719.00,0.2321
7718.00,0.2321
7717.00,0.2321
7716.00,0.2321
7715.00,0.2321
7714.00,0.2321
7713.00,0.2321
7712.00,0.2321
7711.00,0.2321
7710.00,0.2321
7709.00,0.2321
7708.00,0.2321
7707.00,0.2321
7706.00,0.2321
7705.00,0.2321
7704.00,0.2320
7703.00,0.2320
7702.00,0.2319
7701.00,0.2318
7700.00,0.2318
7699.00,0.2318
7698.00,0.2318
7697.00,0.2318
7696.00,0.2319
7695.00,0.2319
7694.00,0.2319
7693.00,0.2319
7692.00,0.2319
7691.00,0.2318
7690.00,0.2318
7689.00,0.2317
7688.00,0.2317
7687.00,0.2317
7686.00,0.2316
7685.00,0.2316
7684.00,0.2316
7683.00,0.2316
7682.00,0.2315
7681.00,0.2315
7680.00,0.2314
7679.00,0.2314
7678.00,0.2314
7677.00,0.2315
7676.00,0.2315
7675.00,0.2315
7674.00,0.2314
7673.00,0.2314
7672.00,0.2314
7671.00,0.2314
7670.00,0.2313
7669.00,0.2313
7668.00,0.2313
7667.00,0.2313
7666.00,0.2314
7665.00,0.2314
7664.00,0.2314
7663.00,0.2314
7662.00,0.2314
7661.00,0.2313
7660.00,0.2313
7659.00,0.2313
7658.00,0.2313
7657.00,0.2312
7656.00,0.2312
7655.00,0.2312
7654.00,0.2313
7653.00,0.2313
7652.00,0.2313
7651.00,0.2313
7650.00,0.2313
7649.00,0.2313
7648.00,0.2313
7647.00,0.2314
7646.00,0.2313
7645.00,0.2313
7644.00,0.2313
7643.00,0.2313
7642.00,0.2313
7641.00,0.2313
7640.00,0.2313
7639.00,0.2312
7638.00,0.2312
7637.00,0.2312
7636.00,0.2312
7635.00,0.2312
7634.00,0.2313
7633.00,0.2313
7632.00,0.2314
7631.00,0.2315
7630.00,0.2315
7629.00,0.2315
7628.00,0.2315
7627.00,0.2315
7626.00,0.2315
7625.00,0.2315
7624.00,0.2315
7623.00,0.2315
7622.00,0.2314
7621.00,0.2314
7620.00,0.2315
7619.00,0.2316
7618.00,0.2316
7617.00,0.2317
7616.00,0.2317
7615.00,0.2317
7614.00,0.2317
7613.00,0.2317
7612.00,0.2317
7611.00,0.2317
7610.00,0.2317
7609.00,0.2316
7608.00,0.2316
7607.00,0.2316
7606.00,0.2316
7605.00,0.2317
7604.00,0.2317
7603.00,0.2317
7602.00,0.2318
7601.00,0.2318
7600.00,0.2319
7599.00,0.2320
7598.00,0.2320
7597.00,0.2320
7596.00,0.2321
7595.00,0.2321
7594.00,0.2321
7593.00,0.2321
7592.00,0.2321
7591.00,0.2321
7590.00,0.2321
7589.00,0.2321
7588.00,0.2321
7587.00,0.2321
7586.00,0.2321
7585.00,0.2321
7584.00,0.2322
7583.00,0.2322
7582.00,0.2323
7581.00,0.2323
7580.00,0.2324
7579.00,0.2324
7578.00,0.2324
7577.00,0.2325
7576.00,0.2325
7575.00,0.2325
7574.00,0.2325
7573.00,0.2326
7572.00,0.2326
7571.00,0.2327
7570.00,0.2327
7569.00,0.2327
7568.00,0.2328
7567.00,0.2328
7566.00,0.2329
7565.00,0.2329
7564.00,0.2329
7563.00,0.2329
7562.00,0.2329
7561.00,0.2330
7560.00,0.2330
7559.00,0.2330
7558.00,0.2331
7557.00,0.2331
7556.00,0.2331
7555.00,0.2332
7554.00,0.2332
7553.00,0.2333
7552.00,0.2334
7551.00,0.2335
7550.00,0.2336
7549.00,0.2336
7548.00,0.2337
7547.00,0.2337
7546.00,0.2337
7545.00,0.2337
7544.00,0.2337
7543.00,0.2337
7542.00,0.2337
7541.00,0.2338
7540.00,0.2339
7539.00,0.2340
7538.00,0.2341
7537.00,0.2342
7536.00,0.2343
7535.00,0.2344
7534.00,0.2345
7533.00,0.2345
7532.00,0.2346
7531.00,0.2347
7530.00,0.2347
7529.00,0.2348
7528.00,0.2348
7527.00,0.2349
7526.00,0.2349
7525.00,0.2350
7524.00,0.2351
7523.00,0.2352
7522.00,0.2353
7521.00,0.2354
7520.00,0.2354
7519.00,0.2355
7518.00,0.2355
7517.00,0.2356
7516.00,0.2357
7515.00,0.2358
7514.00,0.2358
7513.00,0.2359
7512.00,0.2360
7511.00,0.2361
7510.00,0.2362
7509.00,0.2362
7508.00,0.2363
7507.00,0.2364
7506.00,0.2364
7505.00,0.2365
7504.00,0.2366
7503.00,0.2367
7502.00,0.2368
7501.00,0.2368
7500.00,0.2369
7499.00,0.2371
7498.00,0.2372
7497.00,0.2373
7496.00,0.2373
7495.00,0.2374
7494.00,0.2374
7493.00,0.2375
7492.00,0.2376
7491.00,0.2377
7490.00,0.2378
7489.00,0.2379
7488.00,0.2380
7487.00,0.2382
7486.00,0.2383
7485.00,0.2385
7484.00,0.2386
7483.00,0.2387
7482.00,0.2388
7481.00,0.2388
7480.00,0.2389
7479.00,0.2390
7478.00,0.2390
7477.00,0.2391
7476.00,0.2392
7475.00,0.2392
7474.00,0.2393
7473.00,0.2394
7472.00,0.2395
7471.00,0.2396
7470.00,0.2397
7469.00,0.2399
7468.00,0.2400
7467.00,0.2401
7466.00,0.2402
7465.00,0.2403
7464.00,0.2404
7463.00,0.2405
7462.00,0.2406
7461.00,0.2407
7460.00,0.2408
7459.00,0.2409
7458.00,0.2410
7457.00,0.2412
7456.00,0.2413
7455.00,0.2414
7454.00,0.2415
7453.00,0.2416
7452.00,0.2417
7451.00,0.2418
7450.00,0.2419
7449.00,0.2420
7448.00,0.2420
7447.00,0.2422
7446.00,0.2423
7445.00,0.2424
7444.00,0.2425
7443.00,0.2426
7442.00,0.2428
7441.00,0.2430
7440.00,0.2431
7439.00,0.2433
7438.00,0.2434
7437.00,0.2435
7436.00,0.2436
7435.00,0.2436
7434.00,0.2437
7433.00,0.2437
7432.00,0.2438
7431.00,0.2439
7430.00,0.2440
7429.00,0.2442
7428.00,0.2443
7427.00,0.2445
7426.00,0.2446
7425.00,0.2449
7424.00,0.2451
7423.00,0.2453
7422.00,0.2455
7421.00,0.2457
7420.00,0.2458
7419.00,0.2459
7418.00,0.2460
7417.00,0.2461
7416.00,0.2461
7415.00,0.2461
7414.00,0.2462
7413.00,0.2462
7412.00,0.2464
7411.00,0.2467
7410.00,0.2469
7409.00,0.2472
7408.00,0.2473
7407.00,0.2474
7406.00,0.2475
7405.00,0.2476
7404.00,0.2477
7403.00,0.2478
7402.00,0.2479
7401.00,0.2481
7400.00,0.2482
7399.00,0.2484
7398.00,0.2487
7397.00,0.2490
7396.00,0.2492
7395.00,0.2493
7394.00,0.2494
7393.00,0.2496
7392.00,0.2497
7391.00,0.2497
7390.00,0.2498
7389.00,0.2499
7388.00,0.2502
7387.00,0.2506
7386.00,0.2510
7385.00,0.2514
7384.00,0.2516
7383.00,0.2518
7382.00,0.2520
7381.00,0.2524
7380.00,0.2527
7379.00,0.2527
7378.00,0.2525
7377.00,0.2521
7376.00,0.2520
7375.00,0.2522
7374.00,0.2525
7373.00,0.2527
7372.00,0.2527
7371.00,0.2527
7370.00,0.2528
7369.00,0.2531
7368.00,0.2534
7367.00,0.2535
7366.00,0.2535
7365.00,0.2534
7364.00,0.2533
7363.00,0.2533
7362.00,0.2536
7361.00,0.2540
7360.00,0.2546
7359.00,0.2549
7358.00,0.2549
7357.00,0.2547
7356.00,0.2546
7355.00,0.2548
7354.00,0.2551
7353.00,0.2553
7352.00,0.2554
7351.00,0.2556
7350.00,0.2560
7349.00,0.2566
7348.00,0.2572
7347.00,0.2578
7346.00,0.2583
7345.00,0.2586
7344.00,0.2588
7343.00,0.2587
7342.00,0.2584
7341.00,0.2578
7340.00,0.2572
7339.00,0.2567
7338.00,0.2562
7337.00,0.2558
7336.00,0.2556
7335.00,0.2559
7334.00,0.2566
7333.00,0.2576
7332.00,0.2584
7331.00,0.2589
7330.00,0.2591
7329.00,0.2592
7328.00,0.2592
7327.00,0.2591
7326.00,0.2587
7325.00,0.2580
7324.00,0.2575
7323.00,0.2572
7322.00,0.2573
7321.00,0.2574
7320.00,0.2575
7319.00,0.2576
7318.00,0.2579
7317.00,0.2584
7316.00,0.2590
7315.00,0.2595
7314.00,0.2597
7313.00,0.2599
7312.00,0.2601
7311.00,0.2603
7310.00,0.2602
7309.00,0.2599
7308.00,0.2593
7307.00,0.2589
7306.00,0.2588
7305.00,0.2588
7304.00,0.2588
7303.00,0.2589
7302.00,0.2589
7301.00,0.2591
7300.00,0.2595
7299.00,0.2601
7298.00,0.2605
7297.00,0.2606
7296.00,0.2604
7295.00,0.2602
7294.00,0.2603
7293.00,0.2605
7292.00,0.2605
7291.00,0.2603
7290.00,0.2600
7289.00,0.2598
7288.00,0.2598
7287.00,0.2599
7286.00,0.2600
7285.00,0.2599
7284.00,0.2598
7283.00,0.2597
7282.00,0.2597
7281.00,0.2598
7280.00,0.2600
7279.00,0.2602
7278.00,0.2603
7277.00,0.2604
7276.00,0.2605
7275.00,0.2605
7274.00,0.2606
7273.00,0.2607
7272.00,0.2607
7271.00,0.2606
7270.00,0.2605
7269.00,0.2605
7268.00,0.2607
7267.00,0.2610
7266.00,0.2613
7265.00,0.2614
7264.00,0.2613
7263.00,0.2612
7262.00,0.2612
7261.00,0.2613
7260.00,0.2613
7259.00,0.2615
7258.00,0.2618
7257.00,0.2622
7256.00,0.2625
7255.00,0.2626
7254.00,0.2626
7253.00,0.2626
7252.00,0.2625
7251.00,0.2624
7250.00,0.2624
7249.00,0.2628
7248.00,0.2637
7247.00,0.2647
7246.00,0.2655
7245.00,0.2659
7244.00,0.2658
7243.00,0.2656
7242.00,0.2651
7241.00,0.2646
7240.00,0.2642
7239.00,0.2641
7238.00,0.2648
7237.00,0.2660
7236.00,0.2672
7235.00,0.2680
7234.00,0.2681
7233.00,0.2680
7232.00,0.2677
7231.00,0.2674
7230.00,0.2668
7229.00,0.2660
7228.00,0.2654
7227.00,0.2653
7226.00,0.2658
7225.00,0.2665
7224.00,0.2670
7223.00,0.2673
7222.00,0.2673
7221.00,0.2673
7220.00,0.2676
7219.00,0.2678
7218.00,0.2678
7217.00,0.2677
7216.00,0.2674
7215.00,0.2673
7214.00,0.2674
7213.00,0.2675
7212.00,0.2677
7211.00,0.2680
7210.00,0.2685
7209.00,0.2692
7208.00,0.2698
7207.00,0.2702
7206.00,0.2705
7205.00,0.2706
7204.00,0.2706
7203.00,0.2704
7202.00,0.2702
7201.00,0.2700
7200.00,0.2700
7199.00,0.2702
7198.00,0.2706
7197.00,0.2710
7196.00,0.2713
7195.00,0.2716
7194.00,0.2718
7193.00,0.2720
7192.00,0.2721
7191.00,0.2723
7190.00,0.2726
7189.00,0.2731
7188.00,0.2737
7187.00,0.2745
7186.00,0.2753
7185.00,0.2759
7184.00,0.2762
7183.00,0.2763
7182.00,0.2763
7181.00,0.2762
7180.00,0.2761
7179.00,0.2759
7178.00,0.2757
7177.00,0.2757
7176.00,0.2761
7175.00,0.2768
7174.00,0.2776
7173.00,0.2784
7172.00,0.2791
7171.00,0.2796
7170.00,0.2800
7169.00,0.2804
7168.00,0.2807
7167.00,0.2810
7166.00,0.2814
7165.00,0.2817
7164.00,0.2819
7163.00,0.2820
7162.00,0.2821
7161.00,0.2822
7160.00,0.2823
7159.00,0.2823
7158.00,0.2821
7157.00,0.2820
7156.00,0.2822
7155.00,0.2825
7154.00,0.2830
7153.00,0.2834
7152.00,0.2839
7151.00,0.2844
7150.00,0.2851
7149.00,0.2858
7148.00,0.2864
7147.00,0.2871
7146.00,0.2878
7145.00,0.2885
7144.00,0.2892
7143.00,0.2898
7142.00,0.2901
7141.00,0.2902
7140.00,0.2904
7139.00,0.2906
7138.00,0.2907
7137.00,0.2907
7136.00,0.2905
7135.00,0.2905
7134.00,0.2907
7133.00,0.2911
7132.00,0.2914
7131.00,0.2918
7130.00,0.2921
7129.00,0.2925
7128.00,0.2930
7127.00,0.2935
7126.00,0.2941
7125.00,0.2947
7124.00,0.2954
7123.00,0.2962
7122.00,0.2972
7121.00,0.2981
7120.00,0.2986
7119.00,0.2988
7118.00,0.2988
7117.00,0.2988
7116.00,0.2989
7115.00,0.2989
7114.00,0.2990
7113.00,0.2994
7112.00,0.3002
7111.00,0.3012
7110.00,0.3021
7109.00,0.3028
7108.00,0.3033
7107.00,0.3035
7106.00,0.3036
7105.00,0.3038
7104.00,0.3040
7103.00,0.3043
7102.00,0.3047
7101.00,0.3054
7100.00,0.3063
7099.00,0.3072
7098.00,0.3080
7097.00,0.3085
7096.00,0.3088
7095.00,0.3090
7094.00,0.3092
7093.00,0.3094
7092.00,0.3095
7091.00,0.3098
7090.00,0.3102
7089.00,0.3107
7088.00,0.3113
7087.00,0.3119
7086.00,0.3125
7085.00,0.3131
7084.00,0.3136
7083.00,0.3140
7082.00,0.3145
7081.00,0.3150
7080.00,0.3155
7079.00,0.3160
7078.00,0.3165
7077.00,0.3171
7076.00,0.3178
7075.00,0.3186
7074.00,0.3194
7073.00,0.3201
7072.00,0.3207
7071.00,0.3212
7070.00,0.3215
7069.00,0.3218
7068.00,0.3220
7067.00,0.3223
7066.00,0.3226
7065.00,0.3230
7064.00,0.3235
7063.00,0.3240
7062.00,0.3246
7061.00,0.3251
7060.00,0.3256
7059.00,0.3263
7058.00,0.3269
7057.00,0.3275
7056.00,0.3280
7055.00,0.3285
7054.00,0.3291
7053.00,0.3298
7052.00,0.3305
7051.00,0.3312
7050.00,0.3317
7049.00,0.3323
7048.00,0.3329
7047.00,0.3334
7046.00,0.3339
7045.00,0.3342
7044.00,0.3345
7043.00,0.3349
7042.00,0.3354
7041.00,0.3359
7040.00,0.3365
7039.00,0.3370
7038.00,0.3375
7037.00,0.3381
7036.00,0.3386
7035.00,0.3391
7034.00,0.3395
7033.00,0.3400
7032.00,0.3406
7031.00,0.3411
7030.00,0.3417
7029.00,0.3423
7028.00,0.3429
7027.00,0.3436
7026.00,0.3442
7025.00,0.3446
7024.00,0.3450
7023.00,0.3454
7022.00,0.3458
7021.00,0.3462
7020.00,0.3466
7019.00,0.3470
7018.00,0.3475
7017.00,0.3481
7016.00,0.3486
7015.00,0.3491
7014.00,0.3496
7013.00,0.3500
7012.00,0.3504
7011.00,0.3509
7010.00,0.3513
7009.00,0.3518
7008.00,0.3523
7007.00,0.3528
7006.00,0.3534
7005.00,0.3539
7004.00,0.3543
7003.00,0.3548
7002.00,0.3552
7001.00,0.3556
7000.00,0.3560
6999.00,0.3564
6998.00,0.3567
6997.00,0.3571
6996.00,0.3575
6995.00,0.3579
6994.00,0.3583
6993.00,0.3588
6992.00,0.3593
6991.00,0.3598
6990.00,0.3603
6989.00,0.3607
6988.00,0.3611
6987.00,0.3616
6986.00,0.3620
6985.00,0.3624
6984.00,0.3627
6983.00,0.3630
6982.00,0.3633
6981.00,0.3636
6980.00,0.3639
6979.00,0.3643
6978.00,0.3647
6977.00,0.3651
6976.00,0.3655
6975.00,0.3660
6974.00,0.3664
6973.00,0.3668
6972.00,0.3671
6971.00,0.3673
6970.00,0.3676
6969.00,0.3678
6968.00,0.3681
6967.00,0.3683
6966.00,0.3687
6965.00,0.3690
6964.00,0.3693
6963.00,0.3697
6962.00,0.3700
6961.00,0.3704
6960.00,0.3707
6959.00,0.3710
6958.00,0.3713
6957.00,0.3716
6956.00,0.3719
6955.00,0.3721
6954.00,0.3724
6953.00,0.3726
6952.00,0.3728
6951.00,0.3731
6950.00,0.3734
6949.00,0.3737
6948.00,0.3739
6947.00,0.3741
6946.00,0.3743
6945.00,0.3745
6944.00,0.3748
6943.00,0.3750
6942.00,0.3753
6941.00,0.3756
6940.00,0.3759
6939.00,0.3762
6938.00,0.3765
6937.00,0.3767
6936.00,0.3769
6935.00,0.3771
6934.00,0.3773
6933.00,0.3775
6932.00,0.3776
6931.00,0.3778
6930.00,0.3780
6929.00,0.3782
6928.00,0.3783
6927.00,0.3785
6926.00,0.3787
6925.00,0.3789
6924.00,0.3791
6923.00,0.3794
6922.00,0.3796
6921.00,0.3799
6920.00,0.3801
6919.00,0.3803
6918.00,0.3804
6917.00,0.3805
6916.00,0.3806
6915.00,0.3807
6914.00,0.3807
6913.00,0.3807
6912.00,0.3808
6911.00,0.3810
6910.00,0.3812
6909.00,0.3813
6908.00,0.3814
6907.00,0.3815
6906.00,0.3816
6905.00,0.3818
6904.00,0.3819
6903.00,0.3821
6902.00,0.3822
6901.00,0.3824
6900.00,0.3825
6899.00,0.3827
6898.00,0.3830
6897.00,0.3832
6896.00,0.3833
6895.00,0.3834
6894.00,0.3835
6893.00,0.3835
6892.00,0.3836
6891.00,0.3837
6890.00,0.3838
6889.00,0.3839
6888.00,0.3841
6887.00,0.3842
6886.00,0.3843
6885.00,0.3844
6884.00,0.3844
6883.00,0.3844
6882.00,0.3844
6881.00,0.3844
6880.00,0.3845
6879.00,0.3845
6878.00,0.3846
6877.00,0.3847
6876.00,0.3848
6875.00,0.3850
6874.00,0.3851
6873.00,0.3852
6872.00,0.3853
6871.00,0.3854
6870.00,0.3854
6869.00,0.3855
6868.00,0.3855
6867.00,0.3855
6866.00,0.3856
6865.00,0.3857
6864.00,0.3858
6863.00,0.3859
6862.00,0.3859
6861.00,0.3860
6860.00,0.3861
6859.00,0.3861
6858.00,0.3861
6857.00,0.3862
6856.00,0.3862
6855.00,0.3863
6854.00,0.3864
6853.00,0.3864
6852.00,0.3865
6851.00,0.3866
6850.00,0.3866
6849.00,0.3867
6848.00,0.3867
6847.00,0.3867
6846.00,0.3868
6845.00,0.3868
6844.00,0.3869
6843.00,0.3870
6842.00,0.3870
6841.00,0.3871
6840.00,0.3872
6839.00,0.3873
6838.00,0.3873
6837.00,0.3874
6836.00,0.3874
6835.00,0.3873
6834.00,0.3873
6833.00,0.3873
6832.00,0.3872
6831.00,0.3872
6830.00,0.3872
6829.00,0.3872
6828.00,0.3873
6827.00,0.3874
6826.00,0.3875
6825.00,0.3875
6824.00,0.3876
6823.00,0.3876
6822.00,0.3877
6821.00,0.3877
6820.00,0.3878
6819.00,0.3878
6818.00,0.3879
6817.00,0.3879
6816.00,0.3879
6815.00,0.3879
6814.00,0.3879
6813.00,0.3879
6812.00,0.3879
6811.00,0.3879
6810.00,0.3879
6809.00,0.3880
6808.00,0.3881
6807.00,0.3881
6806.00,0.3881
6805.00,0.3881
6804.00,0.3881
6803.00,0.3882
6802.00,0.3882
6801.00,0.3881
6800.00,0.3881
6799.00,0.3880
6798.00,0.3880
6797.00,0.3880
6796.00,0.3880
6795.00,0.3880
6794.00,0.3880
6793.00,0.3880
6792.00,0.3880
6791.00,0.3880
6790.00,0.3880
6789.00,0.3879
6788.00,0.3878
6787.00,0.3877
6786.00,0.3876
6785.00,0.3875
6784.00,0.3875
6783.00,0.3874
6782.00,0.3874
6781.00,0.3874
6780.00,0.3873
6779.00,0.3873
6778.00,0.3873
6777.00,0.3872
6776.00,0.3872
6775.00,0.3871
6774.00,0.3871
6773.00,0.3870
6772.00,0.3870
6771.00,0.3870
6770.00,0.3870
6769.00,0.3870
6768.00,0.3870
6767.00,0.3869
6766.00,0.3868
6765.00,0.3868
6764.00,0.3867
6763.00,0.3867
6762.00,0.3866
6761.00,0.3866
6760.00,0.3865
6759.00,0.3865
6758.00,0.3865
6757.00,0.3864
6756.00,0.3862
6755.00,0.3861
6754.00,0.3860
6753.00,0.3860
6752.00,0.3860
6751.00,0.3860
6750.00,0.3860
6749.00,0.3859
6748.00,0.3858
6747.00,0.3857
6746.00,0.3855
6745.00,0.3854
6744.00,0.3852
6743.00,0.3851
6742.00,0.3851
6741.00,0.3850
6740.00,0.3850
6739.00,0.3850
6738.00,0.3850
6737.00,0.3849
6736.00,0.3849
6735.00,0.3848
6734.00,0.3847
6733.00,0.3846
6732.00,0.3846
6731.00,0.3845
6730.00,0.3844
6729.00,0.3843
6728.00,0.3842
6727.00,0.3841
6726.00,0.3840
6725.00,0.3839
6724.00,0.3838
6723.00,0.3837
6722.00,0.3836
6721.00,0.3836
6720.00,0.3836
6719.00,0.3836
6718.00,0.3835
6717.00,0.3835
6716.00,0.3833
6715.00,0.3832
6714.00,0.3831
6713.00,0.3829
6712.00,0.3828
6711.00,0.3827
6710.00,0.3826
6709.00,0.3826
6708.00,0.3826
6707.00,0.3825
6706.00,0.3825
6705.00,0.3824
6704.00,0.3823
6703.00,0.3822
6702.00,0.3820
6701.00,0.3819
6700.00,0.3818
6699.00,0.3816
6698.00,0.3815
6697.00,0.3814
6696.00,0.3813
6695.00,0.3812
6694.00,0.3811
6693.00,0.3811
6692.00,0.3810
6691.00,0.3809
6690.00,0.3808
6689.00,0.3807
6688.00,0.3806
6687.00,0.3805
6686.00,0.3805
6685.00,0.3804
6684.00,0.3803
6683.00,0.3802
6682.00,0.3801
6681.00,0.3801
6680.00,0.3800
6679.00,0.3799
6678.00,0.3798
6677.00,0.3797
6676.00,0.3796
6675.00,0.3796
6674.00,0.3795
6673.00,0.3793
6672.00,0.3792
6671.00,0.3791
6670.00,0.3790
6669.00,0.3789
6668.00,0.3788
6667.00,0.3787
6666.00,0.3786
6665.00,0.3785
6664.00,0.3783
6663.00,0.3782
6662.00,0.3780
6661.00,0.3779
6660.00,0.3779
6659.00,0.3778
6658.00,0.3777
6657.00,0.3776
6656.00,0.3776
6655.00,0.3775
6654.00,0.3774
6653.00,0.3773
6652.00,0.3771
6651.00,0.3770
6650.00,0.3769
6649.00,0.3768
6648.00,0.3767
6647.00,0.3766
6646.00,0.3765
6645.00,0.3764
6644.00,0.3763
6643.00,0.3762
6642.00,0.3761
6641.00,0.3760
6640.00,0.3759
6639.00,0.3758
6638.00,0.3758
6637.00,0.3757
6636.00,0.3756
6635.00,0.3755
6634.00,0.3753
6633.00,0.3752
6632.00,0.3751
6631.00,0.3750
6630.00,0.3749
6629.00,0.3748
6628.00,0.3747
6627.00,0.3746
6626.00,0.3745
6625.00,0.3744
6624.00,0.3743
6623.00,0.3742
6622.00,0.3741
6621.00,0.3740
6620.00,0.3740
6619.00,0.3739
6618.00,0.3738
6617.00,0.3736
6616.00,0.3735
6615.00,0.3734
6614.00,0.3732
6613.00,0.3731
6612.00,0.3730
6611.00,0.3729
6610.00,0.3728
6609.00,0.3728
6608.00,0.3726
6607.00,0.3726
6606.00,0.3725
6605.00,0.3724
6604.00,0.3723
6603.00,0.3721
6602.00,0.3720
6601.00,0.3719
6600.00,0.3718
6599.00,0.3717
6598.00,0.3716
6597.00,0.3715
6596.00,0.3714
6595.00,0.3714
6594.00,0.3713
6593.00,0.3713
6592.00,0.3712
6591.00,0.3711
6590.00,0.3710
6589.00,0.3709
6588.00,0.3708
6587.00,0.3706
6586.00,0.3705
6585.00,0.3705
6584.00,0.3704
6583.00,0.3703
6582.00,0.3702
6581.00,0.3701
6580.00,0.3701
6579.00,0.3700
6578.00,0.3699
6577.00,0.3698
6576.00,0.3697
6575.00,0.3696
6574.00,0.3695
6573.00,0.3695
6572.00,0.3693
6571.00,0.3692
6570.00,0.3691
6569.00,0.3690
6568.00,0.3689
6567.00,0.3688
6566.00,0.3687
6565.00,0.3687
6564.00,0.3686
6563.00,0.3685
6562.00,0.3685
6561.00,0.3685
6560.00,0.3684
6559.00,0.3684
6558.00,0.3684
6557.00,0.3683
6556.00,0.3683
6555.00,0.3682
6554.00,0.3680
6553.00,0.3679
6552.00,0.3678
6551.00,0.3677
6550.00,0.3676
6549.00,0.3676
6548.00,0.3675
6547.00,0.3675
6546.00,0.3675
6545.00,0.3674
6544.00,0.3673
6543.00,0.3672
6542.00,0.3672
6541.00,0.3671
6540.00,0.3671
6539.00,0.3671
6538.00,0.3670
6537.00,0.3670
6536.00,0.3670
6535.00,0.3669
6534.00,0.3668
6533.00,0.3668
6532.00,0.3667
6531.00,0.3666
6530.00,0.3665
6529.00,0.3665
6528.00,0.3664
6527.00,0.3663
6526.00,0.3663
6525.00,0.3663
6524.00,0.3662
6523.00,0.3662
6522.00,0.3662
6521.00,0.3661
6520.00,0.3661
6519.00,0.3661
6518.00,0.3660
6517.00,0.3660
6516.00,0.3659
6515.00,0.3659
6514.00,0.3659
6513.00,0.3659
6512.00,0.3659
6511.00,0.3660
6510.00,0.3659
6509.00,0.3659
6508.00,0.3658
6507.00,0.3658
6506.00,0.3658
6505.00,0.3658
6504.00,0.3658
6503.00,0.3657
6502.00,0.3657
6501.00,0.3656
6500.00,0.3656
6499.00,0.3655
6498.00,0.3654
6497.00,0.3654
6496.00,0.3654
6495.00,0.3654
6494.00,0.3654
6493.00,0.3654
6492.00,0.3654
6491.00,0.3653
6490.00,0.3653
6489.00,0.3652
6488.00,0.3652
6487.00,0.3652
6486.00,0.3652
6485.00,0.3652
6484.00,0.3652
6483.00,0.3652
6482.00,0.3652
6481.00,0.3652
6480.00,0.3651
6479.00,0.3651
6478.00,0.3651
6477.00,0.3650
6476.00,0.3650
6475.00,0.3651
6474.00,0.3651
6473.00,0.3651
6472.00,0.3651
6471.00,0.3651
6470.00,0.3651
6469.00,0.3650
6468.00,0.3650
6467.00,0.3649
6466.00,0.3649
6465.00,0.3649
6464.00,0.3649
6463.00,0.3648
6462.00,0.3648
6461.00,0.3648
6460.00,0.3648
6459.00,0.3648
6458.00,0.3648
6457.00,0.3648
6456.00,0.3648
6455.00,0.3649
6454.00,0.3649
6453.00,0.3649
6452.00,0.3649
6451.00,0.3649
6450.00,0.3649
6449.00,0.3648
6448.00,0.3648
6447.00,0.3648
6446.00,0.3648
6445.00,0.3648
6444.00,0.3648
6443.00,0.3649
6442.00,0.3649
6441.00,0.3650
6440.00,0.3650
6439.00,0.3650
6438.00,0.3650
6437.00,0.3650
6436.00,0.3649
6435.00,0.3649
6434.00,0.3649
6433.00,0.3649
6432.00,0.3649
6431.00,0.3650
6430.00,0.3650
6429.00,0.3649
6428.00,0.3649
6427.00,0.3649
6426.00,0.3650
6425.00,0.3650
6424.00,0.3650
6423.00,0.3650
6422.00,0.3650
6421.00,0.3649
6420.00,0.3649
6419.00,0.3649
6418.00,0.3649
6417.00,0.3649
6416.00,0.3649
6415.00,0.3649
6414.00,0.3649
6413.00,0.3649
6412.00,0.3649
6411.00,0.3649
6410.00,0.3649
6409.00,0.3649
6408.00,0.3649
6407.00,0.3649
6406.00,0.3649
6405.00,0.3649
6404.00,0.3649
6403.00,0.3649
6402.00,0.3649
6401.00,0.3649
6400.00,0.3649
6399.00,0.3649
6398.00,0.3650
6397.00,0.3650
6396.00,0.3650
6395.00,0.3650
6394.00,0.3650
6393.00,0.3650
6392.00,0.3650
6391.00,0.3649
6390.00,0.3649
6389.00,0.3649
6388.00,0.3648
6387.00,0.3648
6386.00,0.3648
6385.00,0.3648
6384.00,0.3648
6383.00,0.3648
6382.00,0.3648
6381.00,0.3649
6380.00,0.3648
6379.00,0.3648
6378.00,0.3648
6377.00,0.3647
6376.00,0.3647
6375.00,0.3647
6374.00,0.3647
6373.00,0.3647
6372.00,0.3647
6371.00,0.3647
6370.00,0.3646
6369.00,0.3646
6368.00,0.3646
6367.00,0.3646
6366.00,0.3645
6365.00,0.3645
6364.00,0.3645
6363.00,0.3645
6362.00,0.3645
6361.00,0.3646
6360.00,0.3646
6359.00,0.3646
6358.00,0.3646
6357.00,0.3646
6356.00,0.3645
6355.00,0.3645
6354.00,0.3644
6353.00,0.3644
6352.00,0.3643
6351.00,0.3643
6350.00,0.3643
6349.00,0.3643
6348.00,0.3642
6347.00,0.3642
6346.00,0.3642
6345.00,0.3642
6344.00,0.3642
6343.00,0.3642
6342.00,0.3642
6341.00,0.3642
6340.00,0.3642
6339.00,0.3641
6338.00,0.3641
6337.00,0.3640
6336.00,0.3640
6335.00,0.3639
6334.00,0.3638
6333.00,0.3638
6332.00,0.3637
6331.00,0.3637
6330.00,0.3637
6329.00,0.3636
6328.00,0.3636
6327.00,0.3636
6326.00,0.3635
6325.00,0.3635
6324.00,0.3634
6323.00,0.3633
6322.00,0.3632
6321.00,0.3632
6320.00,0.3631
6319.00,0.3631
6318.00,0.3630
6317.00,0.3629
6316.00,0.3629
6315.00,0.3629
6314.00,0.3629
6313.00,0.3629
6312.00,0.3628
6311.00,0.3628
6310.00,0.3628
6309.00,0.3627
6308.00,0.3627
6307.00,0.3626
6306.00,0.3625
6305.00,0.3624
6304.00,0.3623
6303.00,0.3623
6302.00,0.3622
6301.00,0.3622
6300.00,0.3621
6299.00,0.3621
6298.00,0.3621
6297.00,0.3620
6296.00,0.3619
6295.00,0.3619
6294.00,0.3618
6293.00,0.3618
6292.00,0.3617
6291.00,0.3617
6290.00,0.3616
6289.00,0.3615
6288.00,0.3614
6287.00,0.3613
6286.00,0.3612
6285.00,0.3611
6284.00,0.3610
6283.00,0.3609
6282.00,0.3609
6281.00,0.3608
6280.00,0.3608
6279.00,0.3607
6278.00,0.3607
6277.00,0.3606
6276.00,0.3606
6275.00,0.3605
6274.00,0.3605
6273.00,0.3604
6272.00,0.3603
6271.00,0.3602
6270.00,0.3600
6269.00,0.3599
6268.00,0.3598
6267.00,0.3597
6266.00,0.3596
6265.00,0.3595
6264.00,0.3594
6263.00,0.3594
6262.00,0.3593
6261.00,0.3592
6260.00,0.3591
6259.00,0.3590
6258.00,0.3589
6257.00,0.3589
6256.00,0.3588
6255.00,0.3587
6254.00,0.3586
6253.00,0.3585
6252.00,0.3584
6251.00,0.3583
6250.00,0.3582
6249.00,0.3582
6248.00,0.3581
6247.00,0.3581
6246.00,0.3580
6245.00,0.3580
6244.00,0.3579
6243.00,0.3578
6242.00,0.3576
6241.00,0.3575
6240.00,0.3573
6239.00,0.3572
6238.00,0.3571
6237.00,0.3570
6236.00,0.3569
6235.00,0.3568
6234.00,0.3568
6233.00,0.3567
6232.00,0.3566
6231.00,0.3564
6230.00,0.3563
6229.00,0.3562
6228.00,0.3561
6227.00,0.3561
6226.00,0.3560
6225.00,0.3559
6224.00,0.3558
6223.00,0.3557
6222.00,0.3556
6221.00,0.3555
6220.00,0.3554
6219.00,0.3553
6218.00,0.3552
6217.00,0.3551
6216.00,0.3550
6215.00,0.3549
6214.00,0.3548
6213.00,0.3547
6212.00,0.3546
6211.00,0.3545
6210.00,0.3544
6209.00,0.3543
6208.00,0.3542
6207.00,0.3541
6206.00,0.3540
6205.00,0.3539
6204.00,0.3537
6203.00,0.3536
6202.00,0.3535
6201.00,0.3535
6200.00,0.3534
6199.00,0.3532
6198.00,0.3532
6197.00,0.3531
6196.00,0.3530
6195.00,0.3529
6194.00,0.3528
6193.00,0.3527
6192.00,0.3526
6191.00,0.3525
6190.00,0.3523
6189.00,0.3522
6188.00,0.3521
6187.00,0.3520
6186.00,0.3519
6185.00,0.3518
6184.00,0.3517
6183.00,0.3516
6182.00,0.3515
6181.00,0.3514
6180.00,0.3513
6179.00,0.3512
6178.00,0.3512
6177.00,0.3510
6176.00,0.3509
6175.00,0.3508
6174.00,0.3507
6173.00,0.3506
6172.00,0.3505
6171.00,0.3504
6170.00,0.3503
6169.00,0.3502
6168.00,0.3501
6167.00,0.3500
6166.00,0.3499
6165.00,0.3497
6164.00,0.3496
6163.00,0.3495
6162.00,0.3493
6161.00,0.3492
6160.00,0.3491
6159.00,0.3491
6158.00,0.3490
6157.00,0.3489
6156.00,0.3488
6155.00,0.3488
6154.00,0.3487
6153.00,0.3486
6152.00,0.3485
6151.00,0.3484
6150.00,0.3483
6149.00,0.3482
6148.00,0.3481
6147.00,0.3480
6146.00,0.3479
6145.00,0.3478
6144.00,0.3477
6143.00,0.3475
6142.00,0.3474
6141.00,0.3473
6140.00,0.3472
6139.00,0.3470
6138.00,0.3469
6137.00,0.3468
6136.00,0.3467
6135.00,0.3466
6134.00,0.3465
6133.00,0.3464
6132.00,0.3462
6131.00,0.3461
6130.00,0.3461
6129.00,0.3460
6128.00,0.3459
6127.00,0.3458
6126.00,0.3457
6125.00,0.3457
6124.00,0.3456
6123.00,0.3455
6122.00,0.3454
6121.00,0.3453
6120.00,0.3452
6119.00,0.3451
6118.00,0.3450
6117.00,0.3450
6116.00,0.3449
6115.00,0.3447
6114.00,0.3446
6113.00,0.3445
6112.00,0.3444
6111.00,0.3442
6110.00,0.3441
6109.00,0.3440
6108.00,0.3440
6107.00,0.3439
6106.00,0.3439
6105.00,0.3438
6104.00,0.3437
6103.00,0.3436
6102.00,0.3435
6101.00,0.3433
6100.00,0.3432
6099.00,0.3431
6098.00,0.3430
6097.00,0.3430
6096.00,0.3429
6095.00,0.3428
6094.00,0.3428
6093.00,0.3427
6092.00,0.3426
6091.00,0.3425
6090.00,0.3424
6089.00,0.3423
6088.00,0.3422
6087.00,0.3421
6086.00,0.3420
6085.00,0.3419
6084.00,0.3418
6083.00,0.3417
6082.00,0.3416
6081.00,0.3415
6080.00,0.3414
6079.00,0.3413
6078.00,0.3413
6077.00,0.3412
6076.00,0.3411
6075.00,0.3410
6074.00,0.3409
6073.00,0.3409
6072.00,0.3408
6071.00,0.3407
6070.00,0.3406
6069.00,0.3405
6068.00,0.3404
6067.00,0.3404
6066.00,0.3403
6065.00,0.3403
6064.00,0.3403
6063.00,0.3402
6062.00,0.3401
6061.00,0.3400
6060.00,0.3399
6059.00,0.3398
6058.00,0.3398
6057.00,0.3397
6056.00,0.3396
6055.00,0.3395
6054.00,0.3394
6053.00,0.3394
6052.00,0.3393
6051.00,0.3392
6050.00,0.3392
6049.00,0.3391
6048.00,0.3390
6047.00,0.3390
6046.00,0.3390
6045.00,0.3389
6044.00,0.3388
6043.00,0.3387
6042.00,0.3386
6041.00,0.3386
6040.00,0.3385
6039.00,0.3384
6038.00,0.3383
6037.00,0.3382
6036.00,0.3382
6035.00,0.3382
6034.00,0.3381
6033.00,0.3381
6032.00,0.3380
6031.00,0.3380
6030.00,0.3379
6029.00,0.3379
6028.00,0.3378
6027.00,0.3378
6026.00,0.3378
6025.00,0.3378
6024.00,0.3377
6023.00,0.3377
6022.00,0.3376
6021.00,0.3376
6020.00,0.3376
6019.00,0.3375
6018.00,0.3375
6017.00,0.3374
6016.00,0.3374
6015.00,0.3374
6014.00,0.3374
6013.00,0.3373
6012.00,0.3373
6011.00,0.3372
6010.00,0.3372
6009.00,0.3372
6008.00,0.3372
6007.00,0.3372
6006.00,0.3371
6005.00,0.3371
6004.00,0.3371
6003.00,0.3370
6002.00,0.3370
6001.00,0.3370
6000.00,0.3369
5999.00,0.3369
5998.00,0.3370
5997.00,0.3370
5996.00,0.3370
5995.00,0.3370
5994.00,0.3371
5993.00,0.3371
5992.00,0.3371
5991.00,0.3371
5990.00,0.3371
5989.00,0.3371
5988.00,0.3370
5987.00,0.3370
5986.00,0.3370
5985.00,0.3371
5984.00,0.3371
5983.00,0.3372
5982.00,0.3372
5981.00,0.3372
5980.00,0.3373
5979.00,0.3373
5978.00,0.3373
5977.00,0.3373
5976.00,0.3373
5975.00,0.3373
5974.00,0.3374
5973.00,0.3375
5972.00,0.3375
5971.00,0.3376
5970.00,0.3377
5969.00,0.3377
5968.00,0.3378
5967.00,0.3378
5966.00,0.3379
5965.00,0.3380
5964.00,0.3381
5963.00,0.3382
5962.00,0.3383
5961.00,0.3384
5960.00,0.3385
5959.00,0.3386
5958.00,0.3388
5957.00,0.3389
5956.00,0.3390
5955.00,0.3392
5954.00,0.3393
5953.00,0.3395
5952.00,0.3396
5951.00,0.3397
5950.00,0.3398
5949.00,0.3400
5948.00,0.3401
5947.00,0.3402
5946.00,0.3403
5945.00,0.3405
5944.00,0.3406
5943.00,0.3408
5942.00,0.3410
5941.00,0.3411
5940.00,0.3413
5939.00,0.3415
5938.00,0.3416
5937.00,0.3418
5936.00,0.3419
5935.00,0.3420
5934.00,0.3421
5933.00,0.3422
5932.00,0.3424
5931.00,0.3425
5930.00,0.3426
5929.00,0.3428
5928.00,0.3430
5927.00,0.3432
5926.00,0.3433
5925.00,0.3434
5924.00,0.3435
5923.00,0.3436
5922.00,0.3437
5921.00,0.3438
5920.00,0.3439
5919.00,0.3440
5918.00,0.3441
5917.00,0.3442
5916.00,0.3444
5915.00,0.3445
5914.00,0.3446
5913.00,0.3447
5912.00,0.3448
5911.00,0.3448
5910.00,0.3449
5909.00,0.3450
5908.00,0.3450
5907.00,0.3450
5906.00,0.3451
5905.00,0.3451
5904.00,0.3451
5903.00,0.3451
5902.00,0.3451
5901.00,0.3452
5900.00,0.3452
5899.00,0.3452
5898.00,0.3452
5897.00,0.3452
5896.00,0.3452
5895.00,0.3452
5894.00,0.3453
5893.00,0.3453
5892.00,0.3454
5891.00,0.3455
5890.00,0.3455
5889.00,0.3456
5888.00,0.3456
5887.00,0.3456
5886.00,0.3457
5885.00,0.3457
5884.00,0.3458
5883.00,0.3458
5882.00,0.3459
5881.00,0.3460
5880.00,0.3460
5879.00,0.3461
5878.00,0.3461
5877.00,0.3462
5876.00,0.3463
5875.00,0.3464
5874.00,0.3465
5873.00,0.3465
5872.00,0.3466
5871.00,0.3467
5870.00,0.3468
5869.00,0.3468
5868.00,0.3469
5867.00,0.3469
5866.00,0.3469
5865.00,0.3470
5864.00,0.3470
5863.00,0.3471
5862.00,0.3472
5861.00,0.3473
5860.00,0.3473
5859.00,0.3474
5858.00,0.3475
5857.00,0.3476
5856.00,0.3476
5855.00,0.3477
5854.00,0.3478
5853.00,0.3479
5852.00,0.3480
5851.00,0.3480
5850.00,0.3480
5849.00,0.3480
5848.00,0.3481
5847.00,0.3482
5846.00,0.3483
5845.00,0.3484
5844.00,0.3485
5843.00,0.3487
5842.00,0.3488
5841.00,0.3490
5840.00,0.3491
5839.00,0.3492
5838.00,0.3493
5837.00,0.3494
5836.00,0.3495
5835.00,0.3496
5834.00,0.3497
5833.00,0.3498
5832.00,0.3499
5831.00,0.3500
5830.00,0.3502
5829.00,0.3503
5828.00,0.3505
5827.00,0.3506
5826.00,0.3508
5825.00,0.3509
5824.00,0.3511
5823.00,0.3512
5822.00,0.3513
5821.00,0.3514
5820.00,0.3515
5819.00,0.3517
5818.00,0.3518
5817.00,0.3519
5816.00,0.3521
5815.00,0.3522
5814.00,0.3523
5813.00,0.3525
5812.00,0.3526
5811.00,0.3527
5810.00,0.3529
5809.00,0.3530
5808.00,0.3531
5807.00,0.3532
5806.00,0.3534
5805.00,0.3535
5804.00,0.3536
5803.00,0.3537
5802.00,0.3538
5801.00,0.3539
5800.00,0.3540
5799.00,0.3542
5798.00,0.3543
5797.00,0.3545
5796.00,0.3546
5795.00,0.3547
5794.00,0.3549
5793.00,0.3550
5792.00,0.3550
5791.00,0.3551
5790.00,0.3552
5789.00,0.3553
5788.00,0.3554
5787.00,0.3555
5786.00,0.3556
5785.00,0.3557
5784.00,0.3558
5783.00,0.3558
5782.00,0.3559
5781.00,0.3560
5780.00,0.3560
5779.00,0.3561
5778.00,0.3562
5777.00,0.3562
5776.00,0.3563
5775.00,0.3563
5774.00,0.3564
5773.00,0.3564
5772.00,0.3564
5771.00,0.3564
5770.00,0.3565
5769.00,0.3565
5768.00,0.3566
5767.00,0.3566
5766.00,0.3566
5765.00,0.3566
5764.00,0.3567
5763.00,0.3567
5762.00,0.3567
5761.00,0.3568
5760.00,0.3569
5759.00,0.3570
5758.00,0.3570
5757.00,0.3570
5756.00,0.3570
5755.00,0.3570
5754.00,0.3569
5753.00,0.3570
5752.00,0.3570
5751.00,0.3570
5750.00,0.3571
5749.00,0.3572
5748.00,0.3572
5747.00,0.3573
5746.00,0.3573
5745.00,0.3573
5744.00,0.3574
5743.00,0.3574
5742.00,0.3574
5741.00,0.3574
5740.00,0.3574
5739.00,0.3574
5738.00,0.3574
5737.00,0.3574
5736.00,0.3575
5735.00,0.3575
5734.00,0.3576
5733.00,0.3576
5732.00,0.3577
5731.00,0.3577
5730.00,0.3577
5729.00,0.3577
5728.00,0.3578
5727.00,0.3578
5726.00,0.3578
5725.00,0.3578
5724.00,0.3578
5723.00,0.3578
5722.00,0.3578
5721.00,0.3578
5720.00,0.3578
5719.00,0.3578
5718.00,0.3579
5717.00,0.3579
5716.00,0.3580
5715.00,0.3580
5714.00,0.3581
5713.00,0.3582
5712.00,0.3582
5711.00,0.3583
5710.00,0.3583
5709.00,0.3583
5708.00,0.3583
5707.00,0.3583
5706.00,0.3583
5705.00,0.3583
5704.00,0.3584
5703.00,0.3584
5702.00,0.3585
5701.00,0.3586
5700.00,0.3587
5699.00,0.3587
5698.00,0.3588
5697.00,0.3588
5696.00,0.3588
5695.00,0.3589
5694.00,0.3589
5693.00,0.3589
5692.00,0.3589
5691.00,0.3589
5690.00,0.3590
5689.00,0.3590
5688.00,0.3591
5687.00,0.3591
5686.00,0.3591
5685.00,0.3591
5684.00,0.3592
5683.00,0.3592
5682.00,0.3592
5681.00,0.3593
5680.00,0.3593
5679.00,0.3594
5678.00,0.3594
5677.00,0.3594
5676.00,0.3594
5675.00,0.3594
5674.00,0.3594
5673.00,0.3595
5672.00,0.3595
5671.00,0.3595
5670.00,0.3595
5669.00,0.3595
5668.00,0.3595
5667.00,0.3595
5666.00,0.3595
5665.00,0.3595
5664.00,0.3596
5663.00,0.3596
5662.00,0.3596
5661.00,0.3596
5660.00,0.3595
5659.00,0.3595
5658.00,0.3595
5657.00,0.3595
5656.00,0.3595
5655.00,0.3595
5654.00,0.3595
5653.00,0.3595
5652.00,0.3594
5651.00,0.3594
5650.00,0.3594
5649.00,0.3594
5648.00,0.3594
5647.00,0.3594
5646.00,0.3595
5645.00,0.3594
5644.00,0.3594
5643.00,0.3594
5642.00,0.3594
5641.00,0.3594
5640.00,0.3593
5639.00,0.3593
5638.00,0.3593
5637.00,0.3593
5636.00,0.3593
5635.00,0.3593
5634.00,0.3593
5633.00,0.3593
5632.00,0.3592
5631.00,0.3592
5630.00,0.3591
5629.00,0.3591
5628.00,0.3591
5627.00,0.3591
5626.00,0.3592
5625.00,0.3592
5624.00,0.3592
5623.00,0.3592
5622.00,0.3591
5621.00,0.3591
5620.00,0.3590
5619.00,0.3590
5618.00,0.3590
5617.00,0.3589
5616.00,0.3589
5615.00,0.3588
5614.00,0.3588
5613.00,0.3587
5612.00,0.3587
5611.00,0.3586
5610.00,0.3586
5609.00,0.3586
5608.00,0.3586
5607.00,0.3586
5606.00,0.3586
5605.00,0.3586
5604.00,0.3586
5603.00,0.3585
5602.00,0.3584
5601.00,0.3584
5600.00,0.3583
5599.00,0.3583
5598.00,0.3582
5597.00,0.3582
5596.00,0.3581
5595.00,0.3580
5594.00,0.3580
5593.00,0.3579
5592.00,0.3578
5591.00,0.3577
5590.00,0.3577
5589.00,0.3577
5588.00,0.3576
5587.00,0.3576
5586.00,0.3576
5585.00,0.3576
5584.00,0.3576
5583.00,0.3575
5582.00,0.3575
5581.00,0.3574
5580.00,0.3573
5579.00,0.3572
5578.00,0.3571
5577.00,0.3571
5576.00,0.3570
5575.00,0.3570
5574.00,0.3569
5573.00,0.3569
5572.00,0.3569
5571.00,0.3568
5570.00,0.3568
5569.00,0.3568
5568.00,0.3567
5567.00,0.3566
5566.00,0.3565
5565.00,0.3564
5564.00,0.3563
5563.00,0.3562
5562.00,0.3561
5561.00,0.3560
5560.00,0.3560
5559.00,0.3560
5558.00,0.3560
5557.00,0.3561
5556.00,0.3561
5555.00,0.3561
5554.00,0.3561
5553.00,0.3561
5552.00,0.3560
5551.00,0.3560
5550.00,0.3559
5549.00,0.3557
5548.00,0.3556
5547.00,0.3554
5546.00,0.3552
5545.00,0.3551
5544.00,0.3550
5543.00,0.3549
5542.00,0.3549
5541.00,0.3550
5540.00,0.3551
5539.00,0.3552
5538.00,0.3552
5537.00,0.3551
5536.00,0.3550
5535.00,0.3548
5534.00,0.3546
5533.00,0.3544
5532.00,0.3543
5531.00,0.3542
5530.00,0.3542
5529.00,0.3541
5528.00,0.3541
5527.00,0.3541
5526.00,0.3542
5525.00,0.3544
5524.00,0.3544
5523.00,0.3545
5522.00,0.3544
5521.00,0.3544
5520.00,0.3543
5519.00,0.3542
5518.00,0.3541
5517.00,0.3539
5516.00,0.3537
5515.00,0.3535
5514.00,0.3533
5513.00,0.3534
5512.00,0.3536
5511.00,0.3539
5510.00,0.3542
5509.00,0.3543
5508.00,0.3542
5507.00,0.3540
5506.00,0.3536
5505.00,0.3533
5504.00,0.3530
5503.00,0.3529
5502.00,0.3529
5501.00,0.3529
5500.00,0.3528
5499.00,0.3528
5498.00,0.3531
5497.00,0.3537
5496.00,0.3543
5495.00,0.3548
5494.00,0.3550
5493.00,0.3550
5492.00,0.3548
5491.00,0.3543
5490.00,0.3537
5489.00,0.3531
5488.00,0.3527
5487.00,0.3523
5486.00,0.3519
5485.00,0.3515
5484.00,0.3512
5483.00,0.3511
5482.00,0.3512
5481.00,0.3515
5480.00,0.3522
5479.00,0.3531
5478.00,0.3538
5477.00,0.3540
5476.00,0.3537
5475.00,0.3530
5474.00,0.3523
5473.00,0.3517
5472.00,0.3514
5471.00,0.3515
5470.00,0.3518
5469.00,0.3521
5468.00,0.3521
5467.00,0.3519
5466.00,0.3519
5465.00,0.3520
5464.00,0.3521
5463.00,0.3522
5462.00,0.3520
5461.00,0.3517
5460.00,0.3513
5459.00,0.3509
5458.00,0.3505
5457.00,0.3501
5456.00,0.3498
5455.00,0.3497
5454.00,0.3498
5453.00,0.3500
5452.00,0.3503
5451.00,0.3508
5450.00,0.3514
5449.00,0.3518
5448.00,0.3520
5447.00,0.3519
5446.00,0.3518
5445.00,0.3518
5444.00,0.3517
5443.00,0.3512
5442.00,0.3505
5441.00,0.3499
5440.00,0.3495
5439.00,0.3494
5438.00,0.3495
5437.00,0.3496
5436.00,0.3497
5435.00,0.3498
5434.00,0.3499
5433.00,0.3500
5432.00,0.3502
5431.00,0.3503
5430.00,0.3502
5429.00,0.3498
5428.00,0.3489
5427.00,0.3479
5426.00,0.3470
5425.00,0.3464
5424.00,0.3462
5423.00,0.3461
5422.00,0.3460
5421.00,0.3460
5420.00,0.3461
5419.00,0.3466
5418.00,0.3475
5417.00,0.3485
5416.00,0.3495
5415.00,0.3501
5414.00,0.3505
5413.00,0.3504
5412.00,0.3497
5411.00,0.3486
5410.00,0.3476
5409.00,0.3468
5408.00,0.3462
5407.00,0.3458
5406.00,0.3455
5405.00,0.3455
5404.00,0.3454
5403.00,0.3453
5402.00,0.3452
5401.00,0.3453
5400.00,0.3457
5399.00,0.3463
5398.00,0.3471
5397.00,0.3477
5396.00,0.3479
5395.00,0.3475
5394.00,0.3468
5393.00,0.3460
5392.00,0.3455
5391.00,0.3453
5390.00,0.3456
5389.00,0.3462
5388.00,0.3468
5387.00,0.3471
5386.00,0.3469
5385.00,0.3464
5384.00,0.3457
5383.00,0.3453
5382.00,0.3453
5381.00,0.3460
5380.00,0.3469
5379.00,0.3478
5378.00,0.3483
5377.00,0.3484
5376.00,0.3479
5375.00,0.3471
5374.00,0.3463
5373.00,0.3457
5372.00,0.3454
5371.00,0.3454
5370.00,0.3455
5369.00,0.3459
5368.00,0.3464
5367.00,0.3470
5366.00,0.3473
5365.00,0.3475
5364.00,0.3474
5363.00,0.3472
5362.00,0.3469
5361.00,0.3467
5360.00,0.3468
5359.00,0.3475
5358.00,0.3486
5357.00,0.3500
5356.00,0.3512
5355.00,0.3518
5354.00,0.3519
5353.00,0.3515
5352.00,0.3510
5351.00,0.3507
5350.00,0.3508
5349.00,0.3517
5348.00,0.3530
5347.00,0.3540
5346.00,0.3543
5345.00,0.3540
5344.00,0.3537
5343.00,0.3537
5342.00,0.3539
5341.00,0.3545
5340.00,0.3552
5339.00,0.3556
5338.00,0.3556
5337.00,0.3550
5336.00,0.3545
5335.00,0.3542
5334.00,0.3542
5333.00,0.3547
5332.00,0.3554
5331.00,0.3562
5330.00,0.3568
5329.00,0.3571
5328.00,0.3572
5327.00,0.3572
5326.00,0.3571
5325.00,0.3569
5324.00,0.3569
5323.00,0.3572
5322.00,0.3578
5321.00,0.3585
5320.00,0.3593
5319.00,0.3600
5318.00,0.3606
5317.00,0.3612
5316.00,0.3617
5315.00,0.3622
5314.00,0.3628
5313.00,0.3634
5312.00,0.3644
5311.00,0.3656
5310.00,0.3667
5309.00,0.3677
5308.00,0.3683
5307.00,0.3689
5306.00,0.3693
5305.00,0.3698
5304.00,0.3705
5303.00,0.3714
5302.00,0.3724
5301.00,0.3734
5300.00,0.3741
5299.00,0.3749
5298.00,0.3757
5297.00,0.3765
5296.00,0.3776
5295.00,0.3790
5294.00,0.3807
5293.00,0.3823
5292.00,0.3837
5291.00,0.3848
5290.00,0.3858
5289.00,0.3868
5288.00,0.3878
5287.00,0.3890
5286.00,0.3902
5285.00,0.3917
5284.00,0.3931
5283.00,0.3944
5282.00,0.3956
5281.00,0.3968
5280.00,0.3981
5279.00,0.3995
5278.00,0.4008
5277.00,0.4021
5276.00,0.4036
5275.00,0.4052
5274.00,0.4070
5273.00,0.4090
5272.00,0.4109
5271.00,0.4129
5270.00,0.4149
5269.00,0.4170
5268.00,0.4192
5267.00,0.4214
5266.00,0.4235
5265.00,0.4255
5264.00,0.4271
5263.00,0.4283
5262.00,0.4292
5261.00,0.4302
5260.00,0.4315
5259.00,0.4334
5258.00,0.4356
5257.00,0.4378
5256.00,0.4397
5255.00,0.4414
5254.00,0.4429
5253.00,0.4444
5252.00,0.4463
5251.00,0.4485
5250.00,0.4509
5249.00,0.4533
5248.00,0.4554
5247.00,0.4569
5246.00,0.4579
5245.00,0.4587
5244.00,0.4595
5243.00,0.4606
5242.00,0.4617
5241.00,0.4629
5240.00,0.4643
5239.00,0.4660
5238.00,0.4678
5237.00,0.4695
5236.00,0.4712
5235.00,0.4730
5234.00,0.4748
5233.00,0.4764
5232.00,0.4778
5231.00,0.4791
5230.00,0.4806
5229.00,0.4823
5228.00,0.4840
5227.00,0.4856
5226.00,0.4869
5225.00,0.4878
5224.00,0.4884
5223.00,0.4890
5222.00,0.4899
5221.00,0.4911
5220.00,0.4925
5219.00,0.4937
5218.00,0.4946
5217.00,0.4953
5216.00,0.4959
5215.00,0.4968
5214.00,0.4979
5213.00,0.4994
5212.00,0.5012
5211.00,0.5033
5210.00,0.5053
5209.00,0.5070
5208.00,0.5080
5207.00,0.5082
5206.00,0.5080
5205.00,0.5076
5204.00,0.5074
5203.00,0.5076
5202.00,0.5084
5201.00,0.5095
5200.00,0.5108
5199.00,0.5118
5198.00,0.5124
5197.00,0.5128
5196.00,0.5130
5195.00,0.5133
5194.00,0.5137
5193.00,0.5143
5192.00,0.5151
5191.00,0.5159
5190.00,0.5166
5189.00,0.5173
5188.00,0.5179
5187.00,0.5184
5186.00,0.5186
5185.00,0.5188
5184.00,0.5189
5183.00,0.5189
5182.00,0.5190
5181.00,0.5192
5180.00,0.5194
5179.00,0.5197
5178.00,0.5198
5177.00,0.5198
5176.00,0.5199
5175.00,0.5201
5174.00,0.5203
5173.00,0.5205
5172.00,0.5206
5171.00,0.5206
5170.00,0.5205
5169.00,0.5204
5168.00,0.5204
5167.00,0.5205
5166.00,0.5207
5165.00,0.5207
5164.00,0.5207
5163.00,0.5205
5162.00,0.5203
5161.00,0.5201
5160.00,0.5201
5159.00,0.5202
5158.00,0.5201
5157.00,0.5199
5156.00,0.5196
5155.00,0.5192
5154.00,0.5188
5153.00,0.5183
5152.00,0.5180
5151.00,0.5177
5150.00,0.5173
5149.00,0.5170
5148.00,0.5166
5147.00,0.5164
5146.00,0.5162
5145.00,0.5160
5144.00,0.5157
5143.00,0.5153
5142.00,0.5149
5141.00,0.5144
5140.00,0.5139
5139.00,0.5135
5138.00,0.5131
5137.00,0.5128
5136.00,0.5124
5135.00,0.5120
5134.00,0.5116
5133.00,0.5111
5132.00,0.5105
5131.00,0.5100
5130.00,0.5095
5129.00,0.5090
5128.00,0.5085
5127.00,0.5080
5126.00,0.5075
5125.00,0.5071
5124.00,0.5067
5123.00,0.5064
5122.00,0.5061
5121.00,0.5057
5120.00,0.5052
5119.00,0.5046
5118.00,0.5041
5117.00,0.5035
5116.00,0.5030
5115.00,0.5025
5114.00,0.5020
5113.00,0.5015
5112.00,0.5011
5111.00,0.5006
5110.00,0.5001
5109.00,0.4995
5108.00,0.4990
5107.00,0.4985
5106.00,0.4980
5105.00,0.4975
5104.00,0.4970
5103.00,0.4965
5102.00,0.4960
5101.00,0.4956
5100.00,0.4951
5099.00,0.4947
5098.00,0.4942
5097.00,0.4937
5096.00,0.4932
5095.00,0.4927
5094.00,0.4922
5093.00,0.4917
5092.00,0.4912
5091.00,0.4908
5090.00,0.4903
5089.00,0.4899
5088.00,0.4894
5087.00,0.4890
5086.00,0.4885
5085.00,0.4881
5084.00,0.4876
5083.00,0.4872
5082.00,0.4867
5081.00,0.4863
5080.00,0.4859
5079.00,0.4854
5078.00,0.4850
5077.00,0.4845
5076.00,0.4840
5075.00,0.4836
5074.00,0.4831
5073.00,0.4827
5072.00,0.4822
5071.00,0.4818
5070.00,0.4814
5069.00,0.4810
5068.00,0.4806
5067.00,0.4801
5066.00,0.4797
5065.00,0.4792
5064.00,0.4787
5063.00,0.4782
5062.00,0.4776
5061.00,0.4772
5060.00,0.4767
5059.00,0.4763
5058.00,0.4758
5057.00,0.4754
5056.00,0.4749
5055.00,0.4745
5054.00,0.4741
5053.00,0.4736
5052.00,0.4731
5051.00,0.4726
5050.00,0.4721
5049.00,0.4716
5048.00,0.4711
5047.00,0.4706
5046.00,0.4702
5045.00,0.4697
5044.00,0.4692
5043.00,0.4687
5042.00,0.4682
5041.00,0.4677
5040.00,0.4672
5039.00,0.4667
5038.00,0.4662
5037.00,0.4657
5036.00,0.4652
5035.00,0.4647
5034.00,0.4642
5033.00,0.4637
5032.00,0.4632
5031.00,0.4627
5030.00,0.4622
5029.00,0.4617
5028.00,0.4613
5027.00,0.4608
5026.00,0.4603
5025.00,0.4598
5024.00,0.4594
5023.00,0.4589
5022.00,0.4584
5021.00,0.4580
5020.00,0.4575
5019.00,0.4571
5018.00,0.4566
5017.00,0.4561
5016.00,0.4557
5015.00,0.4553
5014.00,0.4549
5013.00,0.4545
5012.00,0.4541
5011.00,0.4537
5010.00,0.4533
5009.00,0.4529
5008.00,0.4525
5007.00,0.4521
5006.00,0.4517
5005.00,0.4514
5004.00,0.4510
5003.00,0.4507
5002.00,0.4503
5001.00,0.4500
5000.00,0.4496
4999.00,0.4493
4998.00,0.4490
4997.00,0.4488
4996.00,0.4485
4995.00,0.4483
4994.00,0.4480
4993.00,0.4478
4992.00,0.4475
4991.00,0.4472
4990.00,0.4470
4989.00,0.4467
4988.00,0.4465
4987.00,0.4462
4986.00,0.4460
4985.00,0.4458
4984.00,0.4456
4983.00,0.4455
4982.00,0.4453
4981.00,0.4452
4980.00,0.4451
4979.00,0.4449
4978.00,0.4448
4977.00,0.4447
4976.00,0.4447
4975.00,0.4446
4974.00,0.4446
4973.00,0.4446
4972.00,0.4445
4971.00,0.4445
4970.00,0.4445
4969.00,0.4445
4968.00,0.4446
4967.00,0.4446
4966.00,0.4446
4965.00,0.4447
4964.00,0.4447
4963.00,0.4448
4962.00,0.4449
4961.00,0.4450
4960.00,0.4451
4959.00,0.4452
4958.00,0.4454
4957.00,0.4455
4956.00,0.4457
4955.00,0.4459
4954.00,0.4460
4953.00,0.4462
4952.00,0.4463
4951.00,0.4465
4950.00,0.4467
4949.00,0.4470
4948.00,0.4473
4947.00,0.4476
4946.00,0.4479
4945.00,0.4483
4944.00,0.4486
4943.00,0.4490
4942.00,0.4494
4941.00,0.4497
4940.00,0.4500
4939.00,0.4503
4938.00,0.4507
4937.00,0.4510
4936.00,0.4513
4935.00,0.4517
4934.00,0.4521
4933.00,0.4524
4932.00,0.4528
4931.00,0.4532
4930.00,0.4536
4929.00,0.4541
4928.00,0.4545
4927.00,0.4550
4926.00,0.4554
4925.00,0.4559
4924.00,0.4564
4923.00,0.4568
4922.00,0.4573
4921.00,0.4578
4920.00,0.4583
4919.00,0.4588
4918.00,0.4593
4917.00,0.4598
4916.00,0.4604
4915.00,0.4610
4914.00,0.4616
4913.00,0.4621
4912.00,0.4627
4911.00,0.4632
4910.00,0.4638
4909.00,0.4643
4908.00,0.4649
4907.00,0.4654
4906.00,0.4660
4905.00,0.4666
4904.00,0.4673
4903.00,0.4679
4902.00,0.4686
4901.00,0.4692
4900.00,0.4699
4899.00,0.4705
4898.00,0.4711
4897.00,0.4717
4896.00,0.4723
4895.00,0.4730
4894.00,0.4736
4893.00,0.4743
4892.00,0.4749
4891.00,0.4756
4890.00,0.4762
4889.00,0.4768
4888.00,0.4775
4887.00,0.4781
4886.00,0.4787
4885.00,0.4794
4884.00,0.4800
4883.00,0.4807
4882.00,0.4814
4881.00,0.4821
4880.00,0.4828
4879.00,0.4834
4878.00,0.4841
4877.00,0.4848
4876.00,0.4854
4875.00,0.4861
4874.00,0.4867
4873.00,0.4874
4872.00,0.4880
4871.00,0.4886
4870.00,0.4892
4869.00,0.4898
4868.00,0.4905
4867.00,0.4911
4866.00,0.4918
4865.00,0.4924
4864.00,0.4930
4863.00,0.4937
4862.00,0.4943
4861.00,0.4949
4860.00,0.4954
4859.00,0.4960
4858.00,0.4966
4857.00,0.4971
4856.00,0.4977
4855.00,0.4983
4854.00,0.4989
4853.00,0.4995
4852.00,0.5001
4851.00,0.5006
4850.00,0.5012
4849.00,0.5018
4848.00,0.5023
4847.00,0.5028
4846.00,0.5033
4845.00,0.5038
4844.00,0.5043
4843.00,0.5049
4842.00,0.5054
4841.00,0.5059
4840.00,0.5064
4839.00,0.5069
4838.00,0.5074
4837.00,0.5079
4836.00,0.5084
4835.00,0.5090
4834.00,0.5095
4833.00,0.5100
4832.00,0.5106
4831.00,0.5110
4830.00,0.5115
4829.00,0.5120
4828.00,0.5124
4827.00,0.5129
4826.00,0.5134
4825.00,0.5138
4824.00,0.5143
4823.00,0.5148
4822.00,0.5152
4821.00,0.5156
4820.00,0.5160
4819.00,0.5164
4818.00,0.5168
4817.00,0.5172
4816.00,0.5176
4815.00,0.5181
4814.00,0.5185
4813.00,0.5189
4812.00,0.5192
4811.00,0.5196
4810.00,0.5199
4809.00,0.5202
4808.00,0.5206
4807.00,0.5209
4806.00,0.5212
4805.00,0.5215
4804.00,0.5218
4803.00,0.5221
4802.00,0.5224
4801.00,0.5227
4800.00,0.5230
4799.00,0.5232
4798.00,0.5235
4797.00,0.5238
4796.00,0.5240
4795.00,0.5243
4794.00,0.5246
4793.00,0.5249
4792.00,0.5252
4791.00,0.5255
4790.00,0.5258
4789.00,0.5261
4788.00,0.5263
4787.00,0.5265
4786.00,0.5266
4785.00,0.5268
4784.00,0.5270
4783.00,0.5272
4782.00,0.5274
4781.00,0.5276
4780.00,0.5278
4779.00,0.5280
4778.00,0.5282
4777.00,0.5283
4776.00,0.5285
4775.00,0.5287
4774.00,0.5289
4773.00,0.5290
4772.00,0.5292
4771.00,0.5294
4770.00,0.5295
4769.00,0.5297
4768.00,0.5298
4767.00,0.5299
4766.00,0.5301
4765.00,0.5302
4764.00,0.5303
4763.00,0.5304
4762.00,0.5305
4761.00,0.5305
4760.00,0.5305
4759.00,0.5305
4758.00,0.5305
4757.00,0.5305
4756.00,0.5306
4755.00,0.5307
4754.00,0.5307
4753.00,0.5308
4752.00,0.5308
4751.00,0.5308
4750.00,0.5308
4749.00,0.5308
4748.00,0.5308
4747.00,0.5307
4746.00,0.5307
4745.00,0.5307
4744.00,0.5306
4743.00,0.5306
4742.00,0.5306
4741.00,0.5306
4740.00,0.5305
4739.00,0.5304
4738.00,0.5304
4737.00,0.5303
4736.00,0.5302
4735.00,0.5301
4734.00,0.5300
4733.00,0.5299
4732.00,0.5297
4731.00,0.5295
4730.00,0.5293
4729.00,0.5291
4728.00,0.5290
4727.00,0.5288
4726.00,0.5287
4725.00,0.5285
4724.00,0.5283
4723.00,0.5281
4722.00,0.5280
4721.00,0.5278
4720.00,0.5276
4719.00,0.5275
4718.00,0.5273
4717.00,0.5270
4716.00,0.5268
4715.00,0.5266
4714.00,0.5264
4713.00,0.5261
4712.00,0.5258
4711.00,0.5256
4710.00,0.5253
4709.00,0.5250
4708.00,0.5248
4707.00,0.5246
4706.00,0.5244
4705.00,0.5242
4704.00,0.5240
4703.00,0.5237
4702.00,0.5235
4701.00,0.5233
4700.00,0.5231
4699.00,0.5228
4698.00,0.5226
4697.00,0.5223
4696.00,0.5220
4695.00,0.5217
4694.00,0.5214
4693.00,0.5210
4692.00,0.5208
4691.00,0.5205
4690.00,0.5203
4689.00,0.5201
4688.00,0.5198
4687.00,0.5196
4686.00,0.5192
4685.00,0.5189
4684.00,0.5186
4683.00,0.5184
4682.00,0.5181
4681.00,0.5179
4680.00,0.5176
4679.00,0.5174
4678.00,0.5171
4677.00,0.5169
4676.00,0.5167
4675.00,0.5164
4674.00,0.5162
4673.00,0.5160
4672.00,0.5158
4671.00,0.5156
4670.00,0.5153
4669.00,0.5151
4668.00,0.5148
4667.00,0.5146
4666.00,0.5143
4665.00,0.5140
4664.00,0.5137
4663.00,0.5134
4662.00,0.5132
4661.00,0.5129
4660.00,0.5127
4659.00,0.5124
4658.00,0.5122
4657.00,0.5119
4656.00,0.5116
4655.00,0.5113
4654.00,0.5110
4653.00,0.5108
4652.00,0.5105
4651.00,0.5103
4650.00,0.5101
4649.00,0.5099
4648.00,0.5096
4647.00,0.5094
4646.00,0.5091
4645.00,0.5089
4644.00,0.5086
4643.00,0.5084
4642.00,0.5082
4641.00,0.5080
4640.00,0.5078
4639.00,0.5076
4638.00,0.5074
4637.00,0.5072
4636.00,0.5070
4635.00,0.5068
4634.00,0.5065
4633.00,0.5063
4632.00,0.5061
4631.00,0.5058
4630.00,0.5056
4629.00,0.5053
4628.00,0.5051
4627.00,0.5050
4626.00,0.5048
4625.00,0.5046
4624.00,0.5045
4623.00,0.5043
4622.00,0.5042
4621.00,0.5041
4620.00,0.5039
4619.00,0.5037
4618.00,0.5035
4617.00,0.5033
4616.00,0.5031
4615.00,0.5030
4614.00,0.5029
4613.00,0.5028
4612.00,0.5027
4611.00,0.5026
4610.00,0.5024
4609.00,0.5022
4608.00,0.5021
4607.00,0.5020
4606.00,0.5018
4605.00,0.5017
4604.00,0.5015
4603.00,0.5014
4602.00,0.5012
4601.00,0.5010
4600.00,0.5009
4599.00,0.5007
4598.00,0.5006
4597.00,0.5004
4596.00,0.5003
4595.00,0.5002
4594.00,0.5001
4593.00,0.5000
4592.00,0.4999
4591.00,0.4997
4590.00,0.4996
4589.00,0.4994
4588.00,0.4993
4587.00,0.4992
4586.00,0.4991
4585.00,0.4991
4584.00,0.4990
4583.00,0.4989
4582.00,0.4987
4581.00,0.4986
4580.00,0.4984
4579.00,0.4982
4578.00,0.4980
4577.00,0.4978
4576.00,0.4977
4575.00,0.4975
4574.00,0.4974
4573.00,0.4973
4572.00,0.4971
4571.00,0.4970
4570.00,0.4969
4569.00,0.4968
4568.00,0.4967
4567.00,0.4965
4566.00,0.4964
4565.00,0.4963
4564.00,0.4962
4563.00,0.4960
4562.00,0.4959
4561.00,0.4957
4560.00,0.4955
4559.00,0.4954
4558.00,0.4952
4557.00,0.4950
4556.00,0.4948
4555.00,0.4947
4554.00,0.4945
4553.00,0.4943
4552.00,0.4942
4551.00,0.4939
4550.00,0.4937
4549.00,0.4935
4548.00,0.4932
4547.00,0.4930
4546.00,0.4928
4545.00,0.4926
4544.00,0.4924
4543.00,0.4922
4542.00,0.4920
4541.00,0.4918
4540.00,0.4917
4539.00,0.4915
4538.00,0.4913
4537.00,0.4910
4536.00,0.4908
4535.00,0.4906
4534.00,0.4903
4533.00,0.4901
4532.00,0.4899
4531.00,0.4897
4530.00,0.4895
4529.00,0.4893
4528.00,0.4891
4527.00,0.4889
4526.00,0.4887
4525.00,0.4885
4524.00,0.4883
4523.00,0.4880
4522.00,0.4878
4521.00,0.4875
4520.00,0.4873
4519.00,0.4871
4518.00,0.4868
4517.00,0.4866
4516.00,0.4864
4515.00,0.4861
4514.00,0.4859
4513.00,0.4857
4512.00,0.4855
4511.00,0.4852
4510.00,0.4850
4509.00,0.4848
4508.00,0.4845
4507.00,0.4843
4506.00,0.4842
4505.00,0.4840
4504.00,0.4838
4503.00,0.4836
4502.00,0.4834
4501.00,0.4832
4500.00,0.4831
4499.00,0.4829
4498.00,0.4828
4497.00,0.4828
4496.00,0.4827
4495.00,0.4826
4494.00,0.4825
4493.00,0.4823
4492.00,0.4822
4491.00,0.4821
4490.00,0.4820
4489.00,0.4820
4488.00,0.4821
4487.00,0.4821
4486.00,0.4822
4485.00,0.4822
4484.00,0.4823
4483.00,0.4824
4482.00,0.4825
4481.00,0.4826
4480.00,0.4827
4479.00,0.4829
4478.00,0.4830
4477.00,0.4832
4476.00,0.4835
4475.00,0.4837
4474.00,0.4840
4473.00,0.4843
4472.00,0.4846
4471.00,0.4849
4470.00,0.4852
4469.00,0.4855
4468.00,0.4859
4467.00,0.4863
4466.00,0.4866
4465.00,0.4870
4464.00,0.4874
4463.00,0.4879
4462.00,0.4884
4461.00,0.4888
4460.00,0.4893
4459.00,0.4898
4458.00,0.4902
4457.00,0.4907
4456.00,0.4912
4455.00,0.4916
4454.00,0.4921
4453.00,0.4925
4452.00,0.4930
4451.00,0.4935
4450.00,0.4940
4449.00,0.4945
4448.00,0.4950
4447.00,0.4956
4446.00,0.4961
4445.00,0.4966
4444.00,0.4971
4443.00,0.4976
4442.00,0.4982
4441.00,0.4987
4440.00,0.4993
4439.00,0.4999
4438.00,0.5004
4437.00,0.5010
4436.00,0.5016
4435.00,0.5023
4434.00,0.5029
4433.00,0.5035
4432.00,0.5042
4431.00,0.5048
4430.00,0.5055
4429.00,0.5062
4428.00,0.5068
4427.00,0.5074
4426.00,0.5080
4425.00,0.5087
4424.00,0.5094
4423.00,0.5101
4422.00,0.5108
4421.00,0.5115
4420.00,0.5122
4419.00,0.5129
4418.00,0.5135
4417.00,0.5141
4416.00,0.5147
4415.00,0.5153
4414.00,0.5159
4413.00,0.5165
4412.00,0.5170
4411.00,0.5175
4410.00,0.5180
4409.00,0.5185
4408.00,0.5189
4407.00,0.5194
4406.00,0.5199
4405.00,0.5204
4404.00,0.5208
4403.00,0.5212
4402.00,0.5216
4401.00,0.5219
4400.00,0.5221
4399.00,0.5224
4398.00,0.5226
4397.00,0.5229
4396.00,0.5230
4395.00,0.5232
4394.00,0.5233
4393.00,0.5234
4392.00,0.5234
4391.00,0.5234
4390.00,0.5234
4389.00,0.5234
4388.00,0.5233
4387.00,0.5232
4386.00,0.5230
4385.00,0.5228
4384.00,0.5226
4383.00,0.5224
4382.00,0.5222
4381.00,0.5220
4380.00,0.5217
4379.00,0.5214
4378.00,0.5212
4377.00,0.5210
4376.00,0.5208
4375.00,0.5206
4374.00,0.5204
4373.00,0.5203
4372.00,0.5200
4371.00,0.5198
4370.00,0.5196
4369.00,0.5193
4368.00,0.5191
4367.00,0.5190
4366.00,0.5188
4365.00,0.5187
4364.00,0.5186
4363.00,0.5184
4362.00,0.5183
4361.00,0.5182
4360.00,0.5181
4359.00,0.5181
4358.00,0.5181
4357.00,0.5181
4356.00,0.5181
4355.00,0.5182
4354.00,0.5183
4353.00,0.5185
4352.00,0.5186
4351.00,0.5188
4350.00,0.5190
4349.00,0.5191
4348.00,0.5193
4347.00,0.5195
4346.00,0.5197
4345.00,0.5198
4344.00,0.5200
4343.00,0.5203
4342.00,0.5206
4341.00,0.5209
4340.00,0.5213
4339.00,0.5216
4338.00,0.5220
4337.00,0.5223
4336.00,0.5227
4335.00,0.5230
4334.00,0.5234
4333.00,0.5238
4332.00,0.5242
4331.00,0.5245
4330.00,0.5248
4329.00,0.5251
4328.00,0.5254
4327.00,0.5257
4326.00,0.5259
4325.00,0.5261
4324.00,0.5263
4323.00,0.5265
4322.00,0.5267
4321.00,0.5269
4320.00,0.5272
4319.00,0.5274
4318.00,0.5276
4317.00,0.5277
4316.00,0.5279
4315.00,0.5282
4314.00,0.5285
4313.00,0.5288
4312.00,0.5290
4311.00,0.5293
4310.00,0.5295
4309.00,0.5297
4308.00,0.5299
4307.00,0.5301
4306.00,0.5303
4305.00,0.5305
4304.00,0.5307
4303.00,0.5309
4302.00,0.5310
4301.00,0.5312
4300.00,0.5314
4299.00,0.5315
4298.00,0.5317
4297.00,0.5317
4296.00,0.5318
4295.00,0.5318
4294.00,0.5318
4293.00,0.5318
4292.00,0.5318
4291.00,0.5318
4290.00,0.5318
4289.00,0.5318
4288.00,0.5317
4287.00,0.5317
4286.00,0.5316
4285.00,0.5315
4284.00,0.5314
4283.00,0.5313
4282.00,0.5311
4281.00,0.5310
4280.00,0.5309
4279.00,0.5308
4278.00,0.5308
4277.00,0.5309
4276.00,0.5309
4275.00,0.5308
4274.00,0.5308
4273.00,0.5308
4272.00,0.5308
4271.00,0.5308
4270.00,0.5308
4269.00,0.5308
4268.00,0.5307
4267.00,0.5307
4266.00,0.5307
4265.00,0.5307
4264.00,0.5308
4263.00,0.5308
4262.00,0.5309
4261.00,0.5310
4260.00,0.5311
4259.00,0.5311
4258.00,0.5312
4257.00,0.5312
4256.00,0.5312
4255.00,0.5311
4254.00,0.5310
4253.00,0.5310
4252.00,0.5309
4251.00,0.5309
4250.00,0.5309
4249.00,0.5310
4248.00,0.5310
4247.00,0.5311
4246.00,0.5312
4245.00,0.5312
4244.00,0.5313
4243.00,0.5314
4242.00,0.5315
4241.00,0.5315
4240.00,0.5315
4239.00,0.5315
4238.00,0.5315
4237.00,0.5316
4236.00,0.5317
4235.00,0.5318
4234.00,0.5318
4233.00,0.5319
4232.00,0.5319
4231.00,0.5320
4230.00,0.5321
4229.00,0.5322
4228.00,0.5323
4227.00,0.5324
4226.00,0.5325
4225.00,0.5325
4224.00,0.5325
4223.00,0.5326
4222.00,0.5326
4221.00,0.5326
4220.00,0.5326
4219.00,0.5326
4218.00,0.5326
4217.00,0.5326
4216.00,0.5326
4215.00,0.5326
4214.00,0.5327
4213.00,0.5327
4212.00,0.5328
4211.00,0.5328
4210.00,0.5328
4209.00,0.5329
4208.00,0.5329
4207.00,0.5330
4206.00,0.5330
4205.00,0.5331
4204.00,0.5331
4203.00,0.5332
4202.00,0.5332
4201.00,0.5333
4200.00,0.5332
4199.00,0.5332
4198.00,0.5333
4197.00,0.5334
4196.00,0.5336
4195.00,0.5338
4194.00,0.5339
4193.00,0.5340
4192.00,0.5341
4191.00,0.5343
4190.00,0.5344
4189.00,0.5346
4188.00,0.5348
4187.00,0.5351
4186.00,0.5353
4185.00,0.5355
4184.00,0.5358
4183.00,0.5360
4182.00,0.5363
4181.00,0.5366
4180.00,0.5369
4179.00,0.5372
4178.00,0.5375
4177.00,0.5379
4176.00,0.5382
4175.00,0.5385
4174.00,0.5388
4173.00,0.5392
4172.00,0.5395
4171.00,0.5399
4170.00,0.5403
4169.00,0.5406
4168.00,0.5410
4167.00,0.5415
4166.00,0.5419
4165.00,0.5423
4164.00,0.5428
4163.00,0.5433
4162.00,0.5439
4161.00,0.5444
4160.00,0.5450
4159.00,0.5455
4158.00,0.5460
4157.00,0.5465
4156.00,0.5471
4155.00,0.5477
4154.00,0.5483
4153.00,0.5489
4152.00,0.5496
4151.00,0.5503
4150.00,0.5510
4149.00,0.5517
4148.00,0.5524
4147.00,0.5531
4146.00,0.5538
4145.00,0.5545
4144.00,0.5552
4143.00,0.5559
4142.00,0.5566
4141.00,0.5574
4140.00,0.5581
4139.00,0.5588
4138.00,0.5595
4137.00,0.5603
4136.00,0.5611
4135.00,0.5619
4134.00,0.5628
4133.00,0.5636
4132.00,0.5644
4131.00,0.5652
4130.00,0.5660
4129.00,0.5669
4128.00,0.5678
4127.00,0.5687
4126.00,0.5696
4125.00,0.5705
4124.00,0.5713
4123.00,0.5722
4122.00,0.5730
4121.00,0.5738
4120.00,0.5747
4119.00,0.5757
4118.00,0.5767
4117.00,0.5777
4116.00,0.5787
4115.00,0.5797
4114.00,0.5806
4113.00,0.5815
4112.00,0.5825
4111.00,0.5835
4110.00,0.5845
4109.00,0.5856
4108.00,0.5867
4107.00,0.5878
4106.00,0.5888
4105.00,0.5899
4104.00,0.5909
4103.00,0.5920
4102.00,0.5931
4101.00,0.5942
4100.00,0.5953
4099.00,0.5964
4098.00,0.5975
4097.00,0.5986
4096.00,0.5998
4095.00,0.6010
4094.00,0.6022
4093.00,0.6033
4092.00,0.6045
4091.00,0.6057
4090.00,0.6069
4089.00,0.6081
4088.00,0.6093
4087.00,0.6104
4086.00,0.6116
4085.00,0.6127
4084.00,0.6138
4083.00,0.6150
4082.00,0.6162
4081.00,0.6175
4080.00,0.6187
4079.00,0.6199
4078.00,0.6212
4077.00,0.6224
4076.00,0.6237
4075.00,0.6249
4074.00,0.6261
4073.00,0.6273
4072.00,0.6285
4071.00,0.6298
4070.00,0.6310
4069.00,0.6323
4068.00,0.6335
4067.00,0.6347
4066.00,0.6360
4065.00,0.6372
4064.00,0.6385
4063.00,0.6398
4062.00,0.6410
4061.00,0.6423
4060.00,0.6435
4059.00,0.6447
4058.00,0.6459
4057.00,0.6472
4056.00,0.6484
4055.00,0.6497
4054.00,0.6509
4053.00,0.6521
4052.00,0.6532
4051.00,0.6543
4050.00,0.6555
4049.00,0.6568
4048.00,0.6581
4047.00,0.6594
4046.00,0.6607
4045.00,0.6618
4044.00,0.6629
4043.00,0.6639
4042.00,0.6649
4041.00,0.6659
4040.00,0.6669
4039.00,0.6680
4038.00,0.6690
4037.00,0.6700
4036.00,0.6710
4035.00,0.6720
4034.00,0.6729
4033.00,0.6738
4032.00,0.6746
4031.00,0.6754
4030.00,0.6763
4029.00,0.6772
4028.00,0.6780
4027.00,0.6788
4026.00,0.6795
4025.00,0.6801
4024.00,0.6807
4023.00,0.6813
4022.00,0.6821
4021.00,0.6828
4020.00,0.6835
4019.00,0.6840
4018.00,0.6844
4017.00,0.6847
4016.00,0.6850
4015.00,0.6852
4014.00,0.6855
4013.00,0.6857
4012.00,0.6860
4011.00,0.6864
4010.00,0.6866
4009.00,0.6867
4008.00,0.6866
4007.00,0.6865
4006.00,0.6864
4005.00,0.6864
4004.00,0.6863
4003.00,0.6861
4002.00,0.6860
4001.00,0.6858
4000.00,0.6858
   㕕侱�
♼⠨⚚