Created As ASCII File,样品 174 用户 Administrator 日期 星期四, 四月 22 2021
cm-1,A
12000.00,0.2116
11999.00,0.2118
11998.00,0.2117
11997.00,0.2112
11996.00,0.2107
11995.00,0.2104
11994.00,0.2102
11993.00,0.2103
11992.00,0.2106
11991.00,0.2108
11990.00,0.2110
11989.00,0.2111
11988.00,0.2112
11987.00,0.2112
11986.00,0.2113
11985.00,0.2115
11984.00,0.2116
11983.00,0.2116
11982.00,0.2115
11981.00,0.2114
11980.00,0.2114
11979.00,0.2113
11978.00,0.2113
11977.00,0.2113
11976.00,0.2112
11975.00,0.2110
11974.00,0.2106
11973.00,0.2102
11972.00,0.2100
11971.00,0.2100
11970.00,0.2103
11969.00,0.2108
11968.00,0.2113
11967.00,0.2115
11966.00,0.2114
11965.00,0.2110
11964.00,0.2107
11963.00,0.2105
11962.00,0.2106
11961.00,0.2109
11960.00,0.2112
11959.00,0.2112
11958.00,0.2109
11957.00,0.2105
11956.00,0.2102
11955.00,0.2101
11954.00,0.2104
11953.00,0.2107
11952.00,0.2109
11951.00,0.2109
11950.00,0.2106
11949.00,0.2101
11948.00,0.2099
11947.00,0.2100
11946.00,0.2103
11945.00,0.2107
11944.00,0.2109
11943.00,0.2108
11942.00,0.2105
11941.00,0.2101
11940.00,0.2100
11939.00,0.2102
11938.00,0.2106
11937.00,0.2110
11936.00,0.2112
11935.00,0.2110
11934.00,0.2108
11933.00,0.2106
11932.00,0.2107
11931.00,0.2111
11930.00,0.2115
11929.00,0.2116
11928.00,0.2114
11927.00,0.2109
11926.00,0.2103
11925.00,0.2100
11924.00,0.2101
11923.00,0.2105
11922.00,0.2108
11921.00,0.2109
11920.00,0.2107
11919.00,0.2102
11918.00,0.2098
11917.00,0.2096
11916.00,0.2097
11915.00,0.2101
11914.00,0.2104
11913.00,0.2106
11912.00,0.2105
11911.00,0.2102
11910.00,0.2099
11909.00,0.2097
11908.00,0.2098
11907.00,0.2101
11906.00,0.2104
11905.00,0.2107
11904.00,0.2109
11903.00,0.2110
11902.00,0.2111
11901.00,0.2113
11900.00,0.2117
11899.00,0.2121
11898.00,0.2124
11897.00,0.2125
11896.00,0.2124
11895.00,0.2122
11894.00,0.2120
11893.00,0.2119
11892.00,0.2119
11891.00,0.2120
11890.00,0.2120
11889.00,0.2120
11888.00,0.2118
11887.00,0.2116
11886.00,0.2114
11885.00,0.2114
11884.00,0.2115
11883.00,0.2116
11882.00,0.2117
11881.00,0.2117
11880.00,0.2116
11879.00,0.2115
11878.00,0.2116
11877.00,0.2117
11876.00,0.2119
11875.00,0.2121
11874.00,0.2121
11873.00,0.2120
11872.00,0.2119
11871.00,0.2117
11870.00,0.2117
11869.00,0.2117
11868.00,0.2118
11867.00,0.2119
11866.00,0.2119
11865.00,0.2117
11864.00,0.2114
11863.00,0.2110
11862.00,0.2106
11861.00,0.2103
11860.00,0.2101
11859.00,0.2101
11858.00,0.2102
11857.00,0.2102
11856.00,0.2101
11855.00,0.2100
11854.00,0.2099
11853.00,0.2100
11852.00,0.2102
11851.00,0.2105
11850.00,0.2109
11849.00,0.2112
11848.00,0.2113
11847.00,0.2112
11846.00,0.2111
11845.00,0.2111
11844.00,0.2112
11843.00,0.2115
11842.00,0.2117
11841.00,0.2119
11840.00,0.2118
11839.00,0.2115
11838.00,0.2111
11837.00,0.2108
11836.00,0.2106
11835.00,0.2106
11834.00,0.2107
11833.00,0.2109
11832.00,0.2111
11831.00,0.2112
11830.00,0.2113
11829.00,0.2115
11828.00,0.2117
11827.00,0.2121
11826.00,0.2123
11825.00,0.2123
11824.00,0.2123
11823.00,0.2122
11822.00,0.2123
11821.00,0.2126
11820.00,0.2130
11819.00,0.2132
11818.00,0.2132
11817.00,0.2127
11816.00,0.2121
11815.00,0.2115
11814.00,0.2113
11813.00,0.2115
11812.00,0.2120
11811.00,0.2125
11810.00,0.2128
11809.00,0.2126
11808.00,0.2122
11807.00,0.2117
11806.00,0.2113
11805.00,0.2111
11804.00,0.2111
11803.00,0.2111
11802.00,0.2112
11801.00,0.2111
11800.00,0.2110
11799.00,0.2108
11798.00,0.2106
11797.00,0.2105
11796.00,0.2105
11795.00,0.2106
11794.00,0.2108
11793.00,0.2111
11792.00,0.2114
11791.00,0.2116
11790.00,0.2116
11789.00,0.2114
11788.00,0.2111
11787.00,0.2109
11786.00,0.2109
11785.00,0.2109
11784.00,0.2110
11783.00,0.2111
11782.00,0.2110
11781.00,0.2109
11780.00,0.2107
11779.00,0.2105
11778.00,0.2104
11777.00,0.2104
11776.00,0.2105
11775.00,0.2106
11774.00,0.2108
11773.00,0.2111
11772.00,0.2113
11771.00,0.2115
11770.00,0.2116
11769.00,0.2117
11768.00,0.2117
11767.00,0.2118
11766.00,0.2120
11765.00,0.2122
11764.00,0.2124
11763.00,0.2126
11762.00,0.2126
11761.00,0.2125
11760.00,0.2122
11759.00,0.2119
11758.00,0.2115
11757.00,0.2113
11756.00,0.2112
11755.00,0.2111
11754.00,0.2112
11753.00,0.2113
11752.00,0.2113
11751.00,0.2113
11750.00,0.2113
11749.00,0.2113
11748.00,0.2113
11747.00,0.2113
11746.00,0.2114
11745.00,0.2116
11744.00,0.2118
11743.00,0.2120
11742.00,0.2121
11741.00,0.2120
11740.00,0.2118
11739.00,0.2115
11738.00,0.2113
11737.00,0.2112
11736.00,0.2112
11735.00,0.2115
11734.00,0.2117
11733.00,0.2120
11732.00,0.2121
11731.00,0.2120
11730.00,0.2119
11729.00,0.2118
11728.00,0.2117
11727.00,0.2117
11726.00,0.2116
11725.00,0.2116
11724.00,0.2115
11723.00,0.2113
11722.00,0.2111
11721.00,0.2109
11720.00,0.2108
11719.00,0.2107
11718.00,0.2107
11717.00,0.2107
11716.00,0.2109
11715.00,0.2111
11714.00,0.2113
11713.00,0.2115
11712.00,0.2116
11711.00,0.2117
11710.00,0.2117
11709.00,0.2116
11708.00,0.2114
11707.00,0.2112
11706.00,0.2109
11705.00,0.2108
11704.00,0.2107
11703.00,0.2106
11702.00,0.2105
11701.00,0.2104
11700.00,0.2102
11699.00,0.2100
11698.00,0.2099
11697.00,0.2100
11696.00,0.2102
11695.00,0.2106
11694.00,0.2111
11693.00,0.2114
11692.00,0.2117
11691.00,0.2118
11690.00,0.2119
11689.00,0.2119
11688.00,0.2119
11687.00,0.2119
11686.00,0.2119
11685.00,0.2118
11684.00,0.2117
11683.00,0.2116
11682.00,0.2115
11681.00,0.2113
11680.00,0.2112
11679.00,0.2110
11678.00,0.2110
11677.00,0.2111
11676.00,0.2112
11675.00,0.2115
11674.00,0.2118
11673.00,0.2120
11672.00,0.2121
11671.00,0.2123
11670.00,0.2124
11669.00,0.2125
11668.00,0.2127
11667.00,0.2128
11666.00,0.2128
11665.00,0.2128
11664.00,0.2126
11663.00,0.2125
11662.00,0.2123
11661.00,0.2121
11660.00,0.2117
11659.00,0.2113
11658.00,0.2108
11657.00,0.2103
11656.00,0.2100
11655.00,0.2100
11654.00,0.2101
11653.00,0.2103
11652.00,0.2104
11651.00,0.2104
11650.00,0.2103
11649.00,0.2102
11648.00,0.2103
11647.00,0.2107
11646.00,0.2113
11645.00,0.2117
11644.00,0.2120
11643.00,0.2120
11642.00,0.2118
11641.00,0.2116
11640.00,0.2116
11639.00,0.2118
11638.00,0.2120
11637.00,0.2121
11636.00,0.2119
11635.00,0.2114
11634.00,0.2110
11633.00,0.2107
11632.00,0.2108
11631.00,0.2112
11630.00,0.2116
11629.00,0.2118
11628.00,0.2116
11627.00,0.2112
11626.00,0.2108
11625.00,0.2106
11624.00,0.2106
11623.00,0.2107
11622.00,0.2109
11621.00,0.2110
11620.00,0.2109
11619.00,0.2108
11618.00,0.2108
11617.00,0.2107
11616.00,0.2107
11615.00,0.2105
11614.00,0.2103
11613.00,0.2102
11612.00,0.2104
11611.00,0.2109
11610.00,0.2116
11609.00,0.2121
11608.00,0.2123
11607.00,0.2120
11606.00,0.2116
11605.00,0.2112
11604.00,0.2111
11603.00,0.2114
11602.00,0.2118
11601.00,0.2121
11600.00,0.2120
11599.00,0.2116
11598.00,0.2112
11597.00,0.2110
11596.00,0.2110
11595.00,0.2112
11594.00,0.2114
11593.00,0.2115
11592.00,0.2113
11591.00,0.2111
11590.00,0.2110
11589.00,0.2110
11588.00,0.2112
11587.00,0.2113
11586.00,0.2113
11585.00,0.2111
11584.00,0.2109
11583.00,0.2107
11582.00,0.2106
11581.00,0.2105
11580.00,0.2105
11579.00,0.2105
11578.00,0.2106
11577.00,0.2108
11576.00,0.2111
11575.00,0.2115
11574.00,0.2118
11573.00,0.2119
11572.00,0.2118
11571.00,0.2115
11570.00,0.2113
11569.00,0.2111
11568.00,0.2113
11567.00,0.2115
11566.00,0.2119
11565.00,0.2121
11564.00,0.2121
11563.00,0.2120
11562.00,0.2118
11561.00,0.2117
11560.00,0.2116
11559.00,0.2118
11558.00,0.2120
11557.00,0.2123
11556.00,0.2125
11555.00,0.2125
11554.00,0.2122
11553.00,0.2118
11552.00,0.2115
11551.00,0.2113
11550.00,0.2113
11549.00,0.2114
11548.00,0.2116
11547.00,0.2116
11546.00,0.2116
11545.00,0.2115
11544.00,0.2114
11543.00,0.2114
11542.00,0.2114
11541.00,0.2114
11540.00,0.2114
11539.00,0.2113
11538.00,0.2112
11537.00,0.2111
11536.00,0.2111
11535.00,0.2110
11534.00,0.2109
11533.00,0.2107
11532.00,0.2107
11531.00,0.2107
11530.00,0.2109
11529.00,0.2112
11528.00,0.2114
11527.00,0.2115
11526.00,0.2116
11525.00,0.2115
11524.00,0.2115
11523.00,0.2117
11522.00,0.2119
11521.00,0.2120
11520.00,0.2120
11519.00,0.2117
11518.00,0.2113
11517.00,0.2109
11516.00,0.2106
11515.00,0.2104
11514.00,0.2104
11513.00,0.2104
11512.00,0.2105
11511.00,0.2105
11510.00,0.2105
11509.00,0.2105
11508.00,0.2107
11507.00,0.2109
11506.00,0.2111
11505.00,0.2112
11504.00,0.2113
11503.00,0.2113
11502.00,0.2112
11501.00,0.2111
11500.00,0.2112
11499.00,0.2113
11498.00,0.2113
11497.00,0.2113
11496.00,0.2112
11495.00,0.2110
11494.00,0.2108
11493.00,0.2107
11492.00,0.2108
11491.00,0.2111
11490.00,0.2114
11489.00,0.2116
11488.00,0.2117
11487.00,0.2118
11486.00,0.2118
11485.00,0.2118
11484.00,0.2118
11483.00,0.2118
11482.00,0.2117
11481.00,0.2116
11480.00,0.2117
11479.00,0.2119
11478.00,0.2121
11477.00,0.2123
11476.00,0.2124
11475.00,0.2124
11474.00,0.2124
11473.00,0.2124
11472.00,0.2127
11471.00,0.2129
11470.00,0.2131
11469.00,0.2130
11468.00,0.2126
11467.00,0.2120
11466.00,0.2115
11465.00,0.2113
11464.00,0.2113
11463.00,0.2115
11462.00,0.2116
11461.00,0.2115
11460.00,0.2112
11459.00,0.2109
11458.00,0.2108
11457.00,0.2111
11456.00,0.2116
11455.00,0.2120
11454.00,0.2123
11453.00,0.2123
11452.00,0.2120
11451.00,0.2117
11450.00,0.2115
11449.00,0.2113
11448.00,0.2112
11447.00,0.2112
11446.00,0.2112
11445.00,0.2112
11444.00,0.2112
11443.00,0.2112
11442.00,0.2112
11441.00,0.2111
11440.00,0.2110
11439.00,0.2109
11438.00,0.2110
11437.00,0.2111
11436.00,0.2113
11435.00,0.2114
11434.00,0.2115
11433.00,0.2115
11432.00,0.2114
11431.00,0.2113
11430.00,0.2112
11429.00,0.2110
11428.00,0.2109
11427.00,0.2109
11426.00,0.2110
11425.00,0.2111
11424.00,0.2112
11423.00,0.2112
11422.00,0.2111
11421.00,0.2110
11420.00,0.2110
11419.00,0.2112
11418.00,0.2116
11417.00,0.2119
11416.00,0.2120
11415.00,0.2119
11414.00,0.2114
11413.00,0.2108
11412.00,0.2104
11411.00,0.2103
11410.00,0.2105
11409.00,0.2110
11408.00,0.2115
11407.00,0.2119
11406.00,0.2120
11405.00,0.2120
11404.00,0.2119
11403.00,0.2118
11402.00,0.2118
11401.00,0.2120
11400.00,0.2122
11399.00,0.2123
11398.00,0.2123
11397.00,0.2120
11396.00,0.2115
11395.00,0.2111
11394.00,0.2108
11393.00,0.2108
11392.00,0.2111
11391.00,0.2113
11390.00,0.2115
11389.00,0.2117
11388.00,0.2118
11387.00,0.2118
11386.00,0.2118
11385.00,0.2118
11384.00,0.2117
11383.00,0.2116
11382.00,0.2115
11381.00,0.2114
11380.00,0.2114
11379.00,0.2114
11378.00,0.2113
11377.00,0.2111
11376.00,0.2109
11375.00,0.2109
11374.00,0.2110
11373.00,0.2113
11372.00,0.2114
11371.00,0.2115
11370.00,0.2113
11369.00,0.2112
11368.00,0.2111
11367.00,0.2113
11366.00,0.2117
11365.00,0.2120
11364.00,0.2122
11363.00,0.2122
11362.00,0.2121
11361.00,0.2121
11360.00,0.2121
11359.00,0.2122
11358.00,0.2123
11357.00,0.2123
11356.00,0.2122
11355.00,0.2119
11354.00,0.2116
11353.00,0.2115
11352.00,0.2113
11351.00,0.2112
11350.00,0.2112
11349.00,0.2111
11348.00,0.2112
11347.00,0.2113
11346.00,0.2115
11345.00,0.2116
11344.00,0.2117
11343.00,0.2116
11342.00,0.2116
11341.00,0.2117
11340.00,0.2119
11339.00,0.2121
11338.00,0.2123
11337.00,0.2124
11336.00,0.2124
11335.00,0.2122
11334.00,0.2122
11333.00,0.2122
11332.00,0.2123
11331.00,0.2125
11330.00,0.2126
11329.00,0.2126
11328.00,0.2124
11327.00,0.2122
11326.00,0.2120
11325.00,0.2119
11324.00,0.2119
11323.00,0.2119
11322.00,0.2118
11321.00,0.2116
11320.00,0.2114
11319.00,0.2112
11318.00,0.2112
11317.00,0.2113
11316.00,0.2116
11315.00,0.2119
11314.00,0.2120
11313.00,0.2119
11312.00,0.2117
11311.00,0.2115
11310.00,0.2114
11309.00,0.2114
11308.00,0.2114
11307.00,0.2115
11306.00,0.2114
11305.00,0.2112
11304.00,0.2110
11303.00,0.2109
11302.00,0.2108
11301.00,0.2108
11300.00,0.2109
11299.00,0.2110
11298.00,0.2110
11297.00,0.2111
11296.00,0.2111
11295.00,0.2111
11294.00,0.2112
11293.00,0.2112
11292.00,0.2113
11291.00,0.2113
11290.00,0.2113
11289.00,0.2113
11288.00,0.2114
11287.00,0.2115
11286.00,0.2117
11285.00,0.2118
11284.00,0.2119
11283.00,0.2119
11282.00,0.2117
11281.00,0.2116
11280.00,0.2115
11279.00,0.2115
11278.00,0.2116
11277.00,0.2117
11276.00,0.2117
11275.00,0.2116
11274.00,0.2113
11273.00,0.2110
11272.00,0.2108
11271.00,0.2107
11270.00,0.2109
11269.00,0.2112
11268.00,0.2115
11267.00,0.2117
11266.00,0.2117
11265.00,0.2115
11264.00,0.2114
11263.00,0.2113
11262.00,0.2114
11261.00,0.2116
11260.00,0.2119
11259.00,0.2120
11258.00,0.2120
11257.00,0.2118
11256.00,0.2115
11255.00,0.2113
11254.00,0.2111
11253.00,0.2111
11252.00,0.2112
11251.00,0.2113
11250.00,0.2114
11249.00,0.2114
11248.00,0.2114
11247.00,0.2114
11246.00,0.2113
11245.00,0.2113
11244.00,0.2114
11243.00,0.2114
11242.00,0.2115
11241.00,0.2115
11240.00,0.2116
11239.00,0.2116
11238.00,0.2116
11237.00,0.2116
11236.00,0.2117
11235.00,0.2117
11234.00,0.2117
11233.00,0.2117
11232.00,0.2116
11231.00,0.2116
11230.00,0.2115
11229.00,0.2115
11228.00,0.2115
11227.00,0.2116
11226.00,0.2116
11225.00,0.2116
11224.00,0.2116
11223.00,0.2115
11222.00,0.2114
11221.00,0.2114
11220.00,0.2113
11219.00,0.2113
11218.00,0.2114
11217.00,0.2114
11216.00,0.2114
11215.00,0.2114
11214.00,0.2113
11213.00,0.2112
11212.00,0.2110
11211.00,0.2108
11210.00,0.2106
11209.00,0.2105
11208.00,0.2106
11207.00,0.2107
11206.00,0.2110
11205.00,0.2112
11204.00,0.2114
11203.00,0.2113
11202.00,0.2112
11201.00,0.2112
11200.00,0.2112
11199.00,0.2114
11198.00,0.2118
11197.00,0.2122
11196.00,0.2124
11195.00,0.2125
11194.00,0.2124
11193.00,0.2122
11192.00,0.2121
11191.00,0.2120
11190.00,0.2119
11189.00,0.2118
11188.00,0.2116
11187.00,0.2115
11186.00,0.2114
11185.00,0.2113
11184.00,0.2113
11183.00,0.2112
11182.00,0.2113
11181.00,0.2113
11180.00,0.2114
11179.00,0.2114
11178.00,0.2114
11177.00,0.2114
11176.00,0.2114
11175.00,0.2115
11174.00,0.2117
11173.00,0.2119
11172.00,0.2120
11171.00,0.2119
11170.00,0.2117
11169.00,0.2115
11168.00,0.2114
11167.00,0.2116
11166.00,0.2119
11165.00,0.2122
11164.00,0.2123
11163.00,0.2123
11162.00,0.2120
11161.00,0.2117
11160.00,0.2114
11159.00,0.2114
11158.00,0.2115
11157.00,0.2117
11156.00,0.2117
11155.00,0.2117
11154.00,0.2115
11153.00,0.2113
11152.00,0.2112
11151.00,0.2113
11150.00,0.2115
11149.00,0.2117
11148.00,0.2118
11147.00,0.2118
11146.00,0.2118
11145.00,0.2117
11144.00,0.2116
11143.00,0.2115
11142.00,0.2115
11141.00,0.2116
11140.00,0.2117
11139.00,0.2118
11138.00,0.2120
11137.00,0.2120
11136.00,0.2120
11135.00,0.2120
11134.00,0.2120
11133.00,0.2121
11132.00,0.2123
11131.00,0.2126
11130.00,0.2127
11129.00,0.2127
11128.00,0.2126
11127.00,0.2125
11126.00,0.2123
11125.00,0.2123
11124.00,0.2122
11123.00,0.2122
11122.00,0.2122
11121.00,0.2121
11120.00,0.2121
11119.00,0.2121
11118.00,0.2121
11117.00,0.2122
11116.00,0.2123
11115.00,0.2124
11114.00,0.2125
11113.00,0.2126
11112.00,0.2126
11111.00,0.2126
11110.00,0.2125
11109.00,0.2123
11108.00,0.2123
11107.00,0.2123
11106.00,0.2125
11105.00,0.2127
11104.00,0.2129
11103.00,0.2129
11102.00,0.2129
11101.00,0.2128
11100.00,0.2127
11099.00,0.2126
11098.00,0.2125
11097.00,0.2124
11096.00,0.2123
11095.00,0.2121
11094.00,0.2118
11093.00,0.2115
11092.00,0.2112
11091.00,0.2110
11090.00,0.2109
11089.00,0.2110
11088.00,0.2112
11087.00,0.2115
11086.00,0.2117
11085.00,0.2119
11084.00,0.2119
11083.00,0.2119
11082.00,0.2120
11081.00,0.2121
11080.00,0.2123
11079.00,0.2124
11078.00,0.2125
11077.00,0.2124
11076.00,0.2124
11075.00,0.2123
11074.00,0.2123
11073.00,0.2124
11072.00,0.2124
11071.00,0.2123
11070.00,0.2123
11069.00,0.2124
11068.00,0.2125
11067.00,0.2126
11066.00,0.2127
11065.00,0.2127
11064.00,0.2126
11063.00,0.2124
11062.00,0.2122
11061.00,0.2121
11060.00,0.2122
11059.00,0.2124
11058.00,0.2126
11057.00,0.2126
11056.00,0.2126
11055.00,0.2125
11054.00,0.2124
11053.00,0.2123
11052.00,0.2122
11051.00,0.2122
11050.00,0.2123
11049.00,0.2124
11048.00,0.2125
11047.00,0.2125
11046.00,0.2125
11045.00,0.2123
11044.00,0.2121
11043.00,0.2118
11042.00,0.2116
11041.00,0.2114
11040.00,0.2114
11039.00,0.2115
11038.00,0.2115
11037.00,0.2115
11036.00,0.2115
11035.00,0.2116
11034.00,0.2118
11033.00,0.2120
11032.00,0.2122
11031.00,0.2124
11030.00,0.2123
11029.00,0.2123
11028.00,0.2123
11027.00,0.2125
11026.00,0.2128
11025.00,0.2130
11024.00,0.2130
11023.00,0.2127
11022.00,0.2121
11021.00,0.2117
11020.00,0.2114
11019.00,0.2114
11018.00,0.2116
11017.00,0.2118
11016.00,0.2120
11015.00,0.2120
11014.00,0.2120
11013.00,0.2119
11012.00,0.2119
11011.00,0.2119
11010.00,0.2121
11009.00,0.2123
11008.00,0.2126
11007.00,0.2129
11006.00,0.2131
11005.00,0.2131
11004.00,0.2128
11003.00,0.2125
11002.00,0.2123
11001.00,0.2122
11000.00,0.2123
10999.00,0.2125
10998.00,0.2126
10997.00,0.2127
10996.00,0.2128
10995.00,0.2129
10994.00,0.2130
10993.00,0.2131
10992.00,0.2130
10991.00,0.2129
10990.00,0.2128
10989.00,0.2128
10988.00,0.2128
10987.00,0.2127
10986.00,0.2123
10985.00,0.2118
10984.00,0.2114
10983.00,0.2112
10982.00,0.2113
10981.00,0.2116
10980.00,0.2119
10979.00,0.2119
10978.00,0.2117
10977.00,0.2115
10976.00,0.2114
10975.00,0.2117
10974.00,0.2122
10973.00,0.2127
10972.00,0.2129
10971.00,0.2127
10970.00,0.2124
10969.00,0.2120
10968.00,0.2118
10967.00,0.2118
10966.00,0.2118
10965.00,0.2118
10964.00,0.2118
10963.00,0.2118
10962.00,0.2116
10961.00,0.2115
10960.00,0.2113
10959.00,0.2111
10958.00,0.2110
10957.00,0.2111
10956.00,0.2113
10955.00,0.2118
10954.00,0.2123
10953.00,0.2127
10952.00,0.2128
10951.00,0.2128
10950.00,0.2126
10949.00,0.2124
10948.00,0.2124
10947.00,0.2124
10946.00,0.2125
10945.00,0.2125
10944.00,0.2125
10943.00,0.2125
10942.00,0.2123
10941.00,0.2121
10940.00,0.2119
10939.00,0.2118
10938.00,0.2118
10937.00,0.2120
10936.00,0.2122
10935.00,0.2126
10934.00,0.2128
10933.00,0.2129
10932.00,0.2129
10931.00,0.2127
10930.00,0.2125
10929.00,0.2122
10928.00,0.2121
10927.00,0.2121
10926.00,0.2122
10925.00,0.2123
10924.00,0.2123
10923.00,0.2121
10922.00,0.2118
10921.00,0.2114
10920.00,0.2111
10919.00,0.2110
10918.00,0.2112
10917.00,0.2115
10916.00,0.2118
10915.00,0.2120
10914.00,0.2121
10913.00,0.2121
10912.00,0.2122
10911.00,0.2124
10910.00,0.2126
10909.00,0.2127
10908.00,0.2127
10907.00,0.2126
10906.00,0.2123
10905.00,0.2120
10904.00,0.2118
10903.00,0.2118
10902.00,0.2118
10901.00,0.2118
10900.00,0.2116
10899.00,0.2114
10898.00,0.2110
10897.00,0.2108
10896.00,0.2107
10895.00,0.2109
10894.00,0.2112
10893.00,0.2115
10892.00,0.2116
10891.00,0.2116
10890.00,0.2114
10889.00,0.2113
10888.00,0.2113
10887.00,0.2115
10886.00,0.2119
10885.00,0.2121
10884.00,0.2122
10883.00,0.2121
10882.00,0.2120
10881.00,0.2119
10880.00,0.2119
10879.00,0.2120
10878.00,0.2121
10877.00,0.2122
10876.00,0.2123
10875.00,0.2123
10874.00,0.2123
10873.00,0.2124
10872.00,0.2124
10871.00,0.2124
10870.00,0.2123
10869.00,0.2121
10868.00,0.2118
10867.00,0.2114
10866.00,0.2110
10865.00,0.2108
10864.00,0.2107
10863.00,0.2108
10862.00,0.2110
10861.00,0.2110
10860.00,0.2110
10859.00,0.2108
10858.00,0.2108
10857.00,0.2108
10856.00,0.2111
10855.00,0.2114
10854.00,0.2116
10853.00,0.2116
10852.00,0.2114
10851.00,0.2112
10850.00,0.2109
10849.00,0.2109
10848.00,0.2110
10847.00,0.2112
10846.00,0.2115
10845.00,0.2116
10844.00,0.2116
10843.00,0.2116
10842.00,0.2116
10841.00,0.2117
10840.00,0.2119
10839.00,0.2121
10838.00,0.2122
10837.00,0.2122
10836.00,0.2121
10835.00,0.2120
10834.00,0.2119
10833.00,0.2118
10832.00,0.2117
10831.00,0.2117
10830.00,0.2117
10829.00,0.2117
10828.00,0.2117
10827.00,0.2116
10826.00,0.2114
10825.00,0.2113
10824.00,0.2112
10823.00,0.2113
10822.00,0.2115
10821.00,0.2117
10820.00,0.2118
10819.00,0.2117
10818.00,0.2115
10817.00,0.2114
10816.00,0.2113
10815.00,0.2115
10814.00,0.2116
10813.00,0.2117
10812.00,0.2116
10811.00,0.2115
10810.00,0.2114
10809.00,0.2114
10808.00,0.2115
10807.00,0.2116
10806.00,0.2117
10805.00,0.2117
10804.00,0.2118
10803.00,0.2119
10802.00,0.2120
10801.00,0.2121
10800.00,0.2120
10799.00,0.2118
10798.00,0.2116
10797.00,0.2115
10796.00,0.2116
10795.00,0.2117
10794.00,0.2118
10793.00,0.2118
10792.00,0.2118
10791.00,0.2118
10790.00,0.2119
10789.00,0.2120
10788.00,0.2120
10787.00,0.2120
10786.00,0.2118
10785.00,0.2117
10784.00,0.2116
10783.00,0.2117
10782.00,0.2120
10781.00,0.2122
10780.00,0.2123
10779.00,0.2122
10778.00,0.2120
10777.00,0.2117
10776.00,0.2116
10775.00,0.2117
10774.00,0.2117
10773.00,0.2117
10772.00,0.2116
10771.00,0.2114
10770.00,0.2111
10769.00,0.2109
10768.00,0.2108
10767.00,0.2108
10766.00,0.2108
10765.00,0.2109
10764.00,0.2110
10763.00,0.2112
10762.00,0.2114
10761.00,0.2115
10760.00,0.2115
10759.00,0.2113
10758.00,0.2110
10757.00,0.2107
10756.00,0.2107
10755.00,0.2108
10754.00,0.2110
10753.00,0.2111
10752.00,0.2110
10751.00,0.2108
10750.00,0.2105
10749.00,0.2104
10748.00,0.2104
10747.00,0.2106
10746.00,0.2107
10745.00,0.2109
10744.00,0.2110
10743.00,0.2111
10742.00,0.2112
10741.00,0.2112
10740.00,0.2113
10739.00,0.2113
10738.00,0.2112
10737.00,0.2112
10736.00,0.2112
10735.00,0.2113
10734.00,0.2115
10733.00,0.2116
10732.00,0.2116
10731.00,0.2116
10730.00,0.2115
10729.00,0.2115
10728.00,0.2117
10727.00,0.2119
10726.00,0.2120
10725.00,0.2121
10724.00,0.2120
10723.00,0.2117
10722.00,0.2115
10721.00,0.2113
10720.00,0.2113
10719.00,0.2113
10718.00,0.2112
10717.00,0.2112
10716.00,0.2111
10715.00,0.2111
10714.00,0.2112
10713.00,0.2114
10712.00,0.2116
10711.00,0.2117
10710.00,0.2118
10709.00,0.2118
10708.00,0.2119
10707.00,0.2119
10706.00,0.2120
10705.00,0.2120
10704.00,0.2119
10703.00,0.2118
10702.00,0.2118
10701.00,0.2118
10700.00,0.2118
10699.00,0.2117
10698.00,0.2115
10697.00,0.2114
10696.00,0.2113
10695.00,0.2113
10694.00,0.2113
10693.00,0.2114
10692.00,0.2115
10691.00,0.2115
10690.00,0.2113
10689.00,0.2112
10688.00,0.2111
10687.00,0.2111
10686.00,0.2112
10685.00,0.2113
10684.00,0.2115
10683.00,0.2115
10682.00,0.2113
10681.00,0.2109
10680.00,0.2107
10679.00,0.2105
10678.00,0.2106
10677.00,0.2108
10676.00,0.2110
10675.00,0.2110
10674.00,0.2110
10673.00,0.2109
10672.00,0.2108
10671.00,0.2109
10670.00,0.2110
10669.00,0.2111
10668.00,0.2112
10667.00,0.2114
10666.00,0.2115
10665.00,0.2117
10664.00,0.2119
10663.00,0.2119
10662.00,0.2117
10661.00,0.2115
10660.00,0.2114
10659.00,0.2114
10658.00,0.2115
10657.00,0.2116
10656.00,0.2117
10655.00,0.2116
10654.00,0.2116
10653.00,0.2115
10652.00,0.2116
10651.00,0.2116
10650.00,0.2116
10649.00,0.2116
10648.00,0.2116
10647.00,0.2116
10646.00,0.2116
10645.00,0.2115
10644.00,0.2115
10643.00,0.2115
10642.00,0.2115
10641.00,0.2114
10640.00,0.2112
10639.00,0.2111
10638.00,0.2110
10637.00,0.2110
10636.00,0.2111
10635.00,0.2112
10634.00,0.2113
10633.00,0.2113
10632.00,0.2112
10631.00,0.2111
10630.00,0.2112
10629.00,0.2115
10628.00,0.2118
10627.00,0.2122
10626.00,0.2125
10625.00,0.2125
10624.00,0.2123
10623.00,0.2121
10622.00,0.2120
10621.00,0.2120
10620.00,0.2121
10619.00,0.2121
10618.00,0.2121
10617.00,0.2120
10616.00,0.2119
10615.00,0.2120
10614.00,0.2121
10613.00,0.2123
10612.00,0.2125
10611.00,0.2124
10610.00,0.2123
10609.00,0.2122
10608.00,0.2121
10607.00,0.2120
10606.00,0.2120
10605.00,0.2119
10604.00,0.2118
10603.00,0.2117
10602.00,0.2117
10601.00,0.2118
10600.00,0.2120
10599.00,0.2122
10598.00,0.2122
10597.00,0.2122
10596.00,0.2122
10595.00,0.2121
10594.00,0.2121
10593.00,0.2121
10592.00,0.2121
10591.00,0.2120
10590.00,0.2120
10589.00,0.2120
10588.00,0.2120
10587.00,0.2121
10586.00,0.2121
10585.00,0.2121
10584.00,0.2120
10583.00,0.2120
10582.00,0.2120
10581.00,0.2121
10580.00,0.2120
10579.00,0.2119
10578.00,0.2117
10577.00,0.2115
10576.00,0.2115
10575.00,0.2115
10574.00,0.2117
10573.00,0.2119
10572.00,0.2120
10571.00,0.2121
10570.00,0.2121
10569.00,0.2121
10568.00,0.2122
10567.00,0.2122
10566.00,0.2123
10565.00,0.2124
10564.00,0.2124
10563.00,0.2125
10562.00,0.2125
10561.00,0.2125
10560.00,0.2125
10559.00,0.2125
10558.00,0.2125
10557.00,0.2127
10556.00,0.2130
10555.00,0.2132
10554.00,0.2134
10553.00,0.2134
10552.00,0.2134
10551.00,0.2133
10550.00,0.2133
10549.00,0.2132
10548.00,0.2132
10547.00,0.2130
10546.00,0.2128
10545.00,0.2126
10544.00,0.2125
10543.00,0.2125
10542.00,0.2126
10541.00,0.2128
10540.00,0.2130
10539.00,0.2133
10538.00,0.2136
10537.00,0.2139
10536.00,0.2142
10535.00,0.2143
10534.00,0.2143
10533.00,0.2140
10532.00,0.2138
10531.00,0.2137
10530.00,0.2137
10529.00,0.2137
10528.00,0.2135
10527.00,0.2133
10526.00,0.2130
10525.00,0.2129
10524.00,0.2131
10523.00,0.2134
10522.00,0.2139
10521.00,0.2142
10520.00,0.2143
10519.00,0.2143
10518.00,0.2142
10517.00,0.2142
10516.00,0.2142
10515.00,0.2142
10514.00,0.2142
10513.00,0.2142
10512.00,0.2141
10511.00,0.2140
10510.00,0.2141
10509.00,0.2142
10508.00,0.2143
10507.00,0.2143
10506.00,0.2144
10505.00,0.2145
10504.00,0.2146
10503.00,0.2147
10502.00,0.2147
10501.00,0.2145
10500.00,0.2143
10499.00,0.2139
10498.00,0.2137
10497.00,0.2137
10496.00,0.2137
10495.00,0.2137
10494.00,0.2137
10493.00,0.2135
10492.00,0.2135
10491.00,0.2135
10490.00,0.2138
10489.00,0.2142
10488.00,0.2146
10487.00,0.2149
10486.00,0.2150
10485.00,0.2150
10484.00,0.2150
10483.00,0.2150
10482.00,0.2150
10481.00,0.2151
10480.00,0.2151
10479.00,0.2151
10478.00,0.2151
10477.00,0.2149
10476.00,0.2148
10475.00,0.2146
10474.00,0.2145
10473.00,0.2145
10472.00,0.2146
10471.00,0.2147
10470.00,0.2148
10469.00,0.2148
10468.00,0.2148
10467.00,0.2148
10466.00,0.2147
10465.00,0.2147
10464.00,0.2147
10463.00,0.2148
10462.00,0.2148
10461.00,0.2148
10460.00,0.2147
10459.00,0.2146
10458.00,0.2145
10457.00,0.2144
10456.00,0.2145
10455.00,0.2147
10454.00,0.2149
10453.00,0.2150
10452.00,0.2150
10451.00,0.2150
10450.00,0.2151
10449.00,0.2152
10448.00,0.2154
10447.00,0.2156
10446.00,0.2156
10445.00,0.2156
10444.00,0.2156
10443.00,0.2157
10442.00,0.2158
10441.00,0.2158
10440.00,0.2158
10439.00,0.2157
10438.00,0.2157
10437.00,0.2158
10436.00,0.2159
10435.00,0.2161
10434.00,0.2161
10433.00,0.2160
10432.00,0.2159
10431.00,0.2157
10430.00,0.2156
10429.00,0.2156
10428.00,0.2158
10427.00,0.2159
10426.00,0.2160
10425.00,0.2160
10424.00,0.2159
10423.00,0.2157
10422.00,0.2156
10421.00,0.2155
10420.00,0.2156
10419.00,0.2158
10418.00,0.2160
10417.00,0.2160
10416.00,0.2159
10415.00,0.2158
10414.00,0.2157
10413.00,0.2157
10412.00,0.2159
10411.00,0.2162
10410.00,0.2164
10409.00,0.2165
10408.00,0.2166
10407.00,0.2168
10406.00,0.2169
10405.00,0.2172
10404.00,0.2174
10403.00,0.2175
10402.00,0.2175
10401.00,0.2173
10400.00,0.2171
10399.00,0.2167
10398.00,0.2165
10397.00,0.2164
10396.00,0.2164
10395.00,0.2164
10394.00,0.2164
10393.00,0.2163
10392.00,0.2161
10391.00,0.2159
10390.00,0.2160
10389.00,0.2163
10388.00,0.2166
10387.00,0.2168
10386.00,0.2169
10385.00,0.2169
10384.00,0.2168
10383.00,0.2168
10382.00,0.2168
10381.00,0.2169
10380.00,0.2170
10379.00,0.2171
10378.00,0.2172
10377.00,0.2172
10376.00,0.2172
10375.00,0.2172
10374.00,0.2172
10373.00,0.2172
10372.00,0.2173
10371.00,0.2173
10370.00,0.2173
10369.00,0.2173
10368.00,0.2173
10367.00,0.2173
10366.00,0.2174
10365.00,0.2175
10364.00,0.2175
10363.00,0.2175
10362.00,0.2173
10361.00,0.2172
10360.00,0.2172
10359.00,0.2173
10358.00,0.2174
10357.00,0.2175
10356.00,0.2174
10355.00,0.2173
10354.00,0.2172
10353.00,0.2174
10352.00,0.2177
10351.00,0.2179
10350.00,0.2180
10349.00,0.2178
10348.00,0.2176
10347.00,0.2175
10346.00,0.2176
10345.00,0.2178
10344.00,0.2180
10343.00,0.2181
10342.00,0.2180
10341.00,0.2179
10340.00,0.2179
10339.00,0.2181
10338.00,0.2183
10337.00,0.2184
10336.00,0.2184
10335.00,0.2184
10334.00,0.2183
10333.00,0.2183
10332.00,0.2183
10331.00,0.2181
10330.00,0.2179
10329.00,0.2177
10328.00,0.2176
10327.00,0.2176
10326.00,0.2176
10325.00,0.2176
10324.00,0.2176
10323.00,0.2174
10322.00,0.2173
10321.00,0.2173
10320.00,0.2173
10319.00,0.2174
10318.00,0.2175
10317.00,0.2177
10316.00,0.2178
10315.00,0.2179
10314.00,0.2180
10313.00,0.2181
10312.00,0.2181
10311.00,0.2183
10310.00,0.2185
10309.00,0.2187
10308.00,0.2188
10307.00,0.2189
10306.00,0.2188
10305.00,0.2187
10304.00,0.2186
10303.00,0.2186
10302.00,0.2187
10301.00,0.2187
10300.00,0.2187
10299.00,0.2186
10298.00,0.2185
10297.00,0.2185
10296.00,0.2186
10295.00,0.2186
10294.00,0.2186
10293.00,0.2186
10292.00,0.2186
10291.00,0.2186
10290.00,0.2186
10289.00,0.2187
10288.00,0.2188
10287.00,0.2189
10286.00,0.2189
10285.00,0.2190
10284.00,0.2191
10283.00,0.2193
10282.00,0.2194
10281.00,0.2194
10280.00,0.2195
10279.00,0.2195
10278.00,0.2195
10277.00,0.2195
10276.00,0.2195
10275.00,0.2195
10274.00,0.2194
10273.00,0.2193
10272.00,0.2192
10271.00,0.2192
10270.00,0.2193
10269.00,0.2193
10268.00,0.2193
10267.00,0.2193
10266.00,0.2192
10265.00,0.2192
10264.00,0.2191
10263.00,0.2191
10262.00,0.2192
10261.00,0.2193
10260.00,0.2194
10259.00,0.2194
10258.00,0.2193
10257.00,0.2193
10256.00,0.2193
10255.00,0.2194
10254.00,0.2196
10253.00,0.2197
10252.00,0.2198
10251.00,0.2199
10250.00,0.2199
10249.00,0.2198
10248.00,0.2198
10247.00,0.2198
10246.00,0.2199
10245.00,0.2199
10244.00,0.2199
10243.00,0.2198
10242.00,0.2197
10241.00,0.2197
10240.00,0.2196
10239.00,0.2196
10238.00,0.2196
10237.00,0.2196
10236.00,0.2197
10235.00,0.2199
10234.00,0.2200
10233.00,0.2200
10232.00,0.2201
10231.00,0.2201
10230.00,0.2201
10229.00,0.2201
10228.00,0.2201
10227.00,0.2201
10226.00,0.2201
10225.00,0.2200
10224.00,0.2200
10223.00,0.2200
10222.00,0.2201
10221.00,0.2202
10220.00,0.2203
10219.00,0.2205
10218.00,0.2207
10217.00,0.2209
10216.00,0.2211
10215.00,0.2213
10214.00,0.2213
10213.00,0.2212
10212.00,0.2212
10211.00,0.2211
10210.00,0.2210
10209.00,0.2208
10208.00,0.2206
10207.00,0.2204
10206.00,0.2202
10205.00,0.2202
10204.00,0.2202
10203.00,0.2203
10202.00,0.2205
10201.00,0.2207
10200.00,0.2209
10199.00,0.2212
10198.00,0.2213
10197.00,0.2214
10196.00,0.2214
10195.00,0.2214
10194.00,0.2214
10193.00,0.2214
10192.00,0.2214
10191.00,0.2213
10190.00,0.2212
10189.00,0.2210
10188.00,0.2210
10187.00,0.2210
10186.00,0.2211
10185.00,0.2211
10184.00,0.2211
10183.00,0.2210
10182.00,0.2209
10181.00,0.2210
10180.00,0.2212
10179.00,0.2213
10178.00,0.2213
10177.00,0.2213
10176.00,0.2212
10175.00,0.2212
10174.00,0.2213
10173.00,0.2214
10172.00,0.2215
10171.00,0.2214
10170.00,0.2212
10169.00,0.2211
10168.00,0.2210
10167.00,0.2210
10166.00,0.2210
10165.00,0.2210
10164.00,0.2210
10163.00,0.2211
10162.00,0.2211
10161.00,0.2212
10160.00,0.2211
10159.00,0.2211
10158.00,0.2211
10157.00,0.2213
10156.00,0.2216
10155.00,0.2219
10154.00,0.2220
10153.00,0.2219
10152.00,0.2217
10151.00,0.2216
10150.00,0.2218
10149.00,0.2220
10148.00,0.2222
10147.00,0.2223
10146.00,0.2221
10145.00,0.2219
10144.00,0.2217
10143.00,0.2217
10142.00,0.2218
10141.00,0.2219
10140.00,0.2220
10139.00,0.2220
10138.00,0.2220
10137.00,0.2220
10136.00,0.2220
10135.00,0.2220
10134.00,0.2220
10133.00,0.2220
10132.00,0.2220
10131.00,0.2220
10130.00,0.2221
10129.00,0.2221
10128.00,0.2221
10127.00,0.2220
10126.00,0.2219
10125.00,0.2219
10124.00,0.2219
10123.00,0.2219
10122.00,0.2219
10121.00,0.2218
10120.00,0.2217
10119.00,0.2217
10118.00,0.2219
10117.00,0.2220
10116.00,0.2221
10115.00,0.2220
10114.00,0.2218
10113.00,0.2217
10112.00,0.2218
10111.00,0.2220
10110.00,0.2222
10109.00,0.2222
10108.00,0.2221
10107.00,0.2218
10106.00,0.2216
10105.00,0.2215
10104.00,0.2216
10103.00,0.2218
10102.00,0.2220
10101.00,0.2221
10100.00,0.2221
10099.00,0.2222
10098.00,0.2222
10097.00,0.2223
10096.00,0.2223
10095.00,0.2223
10094.00,0.2223
10093.00,0.2223
10092.00,0.2223
10091.00,0.2223
10090.00,0.2223
10089.00,0.2221
10088.00,0.2220
10087.00,0.2218
10086.00,0.2219
10085.00,0.2220
10084.00,0.2222
10083.00,0.2222
10082.00,0.2221
10081.00,0.2219
10080.00,0.2217
10079.00,0.2216
10078.00,0.2216
10077.00,0.2217
10076.00,0.2217
10075.00,0.2217
10074.00,0.2216
10073.00,0.2217
10072.00,0.2218
10071.00,0.2219
10070.00,0.2220
10069.00,0.2221
10068.00,0.2221
10067.00,0.2221
10066.00,0.2222
10065.00,0.2222
10064.00,0.2221
10063.00,0.2220
10062.00,0.2218
10061.00,0.2216
10060.00,0.2217
10059.00,0.2218
10058.00,0.2220
10057.00,0.2221
10056.00,0.2221
10055.00,0.2222
10054.00,0.2223
10053.00,0.2224
10052.00,0.2226
10051.00,0.2227
10050.00,0.2225
10049.00,0.2223
10048.00,0.2221
10047.00,0.2220
10046.00,0.2220
10045.00,0.2220
10044.00,0.2220
10043.00,0.2219
10042.00,0.2218
10041.00,0.2218
10040.00,0.2219
10039.00,0.2221
10038.00,0.2223
10037.00,0.2224
10036.00,0.2225
10035.00,0.2225
10034.00,0.2225
10033.00,0.2225
10032.00,0.2224
10031.00,0.2224
10030.00,0.2223
10029.00,0.2223
10028.00,0.2224
10027.00,0.2225
10026.00,0.2225
10025.00,0.2226
10024.00,0.2226
10023.00,0.2226
10022.00,0.2226
10021.00,0.2226
10020.00,0.2225
10019.00,0.2224
10018.00,0.2224
10017.00,0.2223
10016.00,0.2222
10015.00,0.2221
10014.00,0.2220
10013.00,0.2219
10012.00,0.2219
10011.00,0.2220
10010.00,0.2222
10009.00,0.2223
10008.00,0.2224
10007.00,0.2223
10006.00,0.2222
10005.00,0.2221
10004.00,0.2220
10003.00,0.2221
10002.00,0.2222
10001.00,0.2222
10000.00,0.2221
9999.00,0.2221
9998.00,0.2220
9997.00,0.2220
9996.00,0.2221
9995.00,0.2221
9994.00,0.2221
9993.00,0.2220
9992.00,0.2218
9991.00,0.2218
9990.00,0.2218
9989.00,0.2218
9988.00,0.2219
9987.00,0.2219
9986.00,0.2219
9985.00,0.2219
9984.00,0.2219
9983.00,0.2220
9982.00,0.2220
9981.00,0.2221
9980.00,0.2221
9979.00,0.2221
9978.00,0.2220
9977.00,0.2219
9976.00,0.2218
9975.00,0.2217
9974.00,0.2217
9973.00,0.2218
9972.00,0.2219
9971.00,0.2220
9970.00,0.2221
9969.00,0.2220
9968.00,0.2219
9967.00,0.2218
9966.00,0.2218
9965.00,0.2220
9964.00,0.2222
9963.00,0.2223
9962.00,0.2223
9961.00,0.2222
9960.00,0.2219
9959.00,0.2217
9958.00,0.2217
9957.00,0.2218
9956.00,0.2219
9955.00,0.2219
9954.00,0.2219
9953.00,0.2219
9952.00,0.2218
9951.00,0.2219
9950.00,0.2219
9949.00,0.2220
9948.00,0.2221
9947.00,0.2222
9946.00,0.2223
9945.00,0.2222
9944.00,0.2220
9943.00,0.2217
9942.00,0.2214
9941.00,0.2213
9940.00,0.2214
9939.00,0.2215
9938.00,0.2215
9937.00,0.2216
9936.00,0.2215
9935.00,0.2215
9934.00,0.2217
9933.00,0.2218
9932.00,0.2219
9931.00,0.2220
9930.00,0.2219
9929.00,0.2218
9928.00,0.2217
9927.00,0.2217
9926.00,0.2217
9925.00,0.2216
9924.00,0.2216
9923.00,0.2215
9922.00,0.2215
9921.00,0.2216
9920.00,0.2218
9919.00,0.2219
9918.00,0.2219
9917.00,0.2218
9916.00,0.2215
9915.00,0.2213
9914.00,0.2211
9913.00,0.2209
9912.00,0.2209
9911.00,0.2209
9910.00,0.2209
9909.00,0.2209
9908.00,0.2208
9907.00,0.2207
9906.00,0.2207
9905.00,0.2209
9904.00,0.2211
9903.00,0.2213
9902.00,0.2215
9901.00,0.2216
9900.00,0.2216
9899.00,0.2215
9898.00,0.2214
9897.00,0.2213
9896.00,0.2214
9895.00,0.2216
9894.00,0.2217
9893.00,0.2218
9892.00,0.2217
9891.00,0.2215
9890.00,0.2213
9889.00,0.2211
9888.00,0.2212
9887.00,0.2212
9886.00,0.2213
9885.00,0.2212
9884.00,0.2211
9883.00,0.2211
9882.00,0.2211
9881.00,0.2213
9880.00,0.2215
9879.00,0.2216
9878.00,0.2215
9877.00,0.2214
9876.00,0.2212
9875.00,0.2212
9874.00,0.2212
9873.00,0.2213
9872.00,0.2213
9871.00,0.2211
9870.00,0.2210
9869.00,0.2209
9868.00,0.2210
9867.00,0.2212
9866.00,0.2214
9865.00,0.2215
9864.00,0.2215
9863.00,0.2214
9862.00,0.2213
9861.00,0.2212
9860.00,0.2212
9859.00,0.2211
9858.00,0.2210
9857.00,0.2209
9856.00,0.2208
9855.00,0.2208
9854.00,0.2208
9853.00,0.2210
9852.00,0.2211
9851.00,0.2212
9850.00,0.2212
9849.00,0.2213
9848.00,0.2214
9847.00,0.2216
9846.00,0.2218
9845.00,0.2218
9844.00,0.2218
9843.00,0.2216
9842.00,0.2214
9841.00,0.2213
9840.00,0.2213
9839.00,0.2214
9838.00,0.2214
9837.00,0.2213
9836.00,0.2211
9835.00,0.2208
9834.00,0.2207
9833.00,0.2208
9832.00,0.2210
9831.00,0.2212
9830.00,0.2213
9829.00,0.2213
9828.00,0.2213
9827.00,0.2213
9826.00,0.2213
9825.00,0.2214
9824.00,0.2214
9823.00,0.2214
9822.00,0.2214
9821.00,0.2214
9820.00,0.2213
9819.00,0.2212
9818.00,0.2212
9817.00,0.2211
9816.00,0.2211
9815.00,0.2210
9814.00,0.2211
9813.00,0.2211
9812.00,0.2212
9811.00,0.2213
9810.00,0.2213
9809.00,0.2212
9808.00,0.2211
9807.00,0.2209
9806.00,0.2209
9805.00,0.2210
9804.00,0.2213
9803.00,0.2215
9802.00,0.2215
9801.00,0.2214
9800.00,0.2212
9799.00,0.2211
9798.00,0.2210
9797.00,0.2210
9796.00,0.2212
9795.00,0.2212
9794.00,0.2212
9793.00,0.2211
9792.00,0.2210
9791.00,0.2209
9790.00,0.2209
9789.00,0.2210
9788.00,0.2211
9787.00,0.2211
9786.00,0.2211
9785.00,0.2211
9784.00,0.2211
9783.00,0.2211
9782.00,0.2210
9781.00,0.2210
9780.00,0.2211
9779.00,0.2212
9778.00,0.2213
9777.00,0.2214
9776.00,0.2214
9775.00,0.2214
9774.00,0.2214
9773.00,0.2213
9772.00,0.2213
9771.00,0.2212
9770.00,0.2212
9769.00,0.2211
9768.00,0.2210
9767.00,0.2209
9766.00,0.2208
9765.00,0.2208
9764.00,0.2208
9763.00,0.2208
9762.00,0.2208
9761.00,0.2207
9760.00,0.2207
9759.00,0.2208
9758.00,0.2209
9757.00,0.2210
9756.00,0.2210
9755.00,0.2209
9754.00,0.2208
9753.00,0.2208
9752.00,0.2208
9751.00,0.2208
9750.00,0.2208
9749.00,0.2208
9748.00,0.2208
9747.00,0.2208
9746.00,0.2209
9745.00,0.2210
9744.00,0.2209
9743.00,0.2208
9742.00,0.2208
9741.00,0.2209
9740.00,0.2210
9739.00,0.2211
9738.00,0.2210
9737.00,0.2208
9736.00,0.2206
9735.00,0.2204
9734.00,0.2204
9733.00,0.2205
9732.00,0.2206
9731.00,0.2206
9730.00,0.2206
9729.00,0.2204
9728.00,0.2203
9727.00,0.2203
9726.00,0.2204
9725.00,0.2205
9724.00,0.2206
9723.00,0.2206
9722.00,0.2204
9721.00,0.2203
9720.00,0.2201
9719.00,0.2200
9718.00,0.2200
9717.00,0.2201
9716.00,0.2202
9715.00,0.2203
9714.00,0.2202
9713.00,0.2201
9712.00,0.2200
9711.00,0.2200
9710.00,0.2200
9709.00,0.2200
9708.00,0.2199
9707.00,0.2199
9706.00,0.2198
9705.00,0.2198
9704.00,0.2199
9703.00,0.2200
9702.00,0.2201
9701.00,0.2202
9700.00,0.2203
9699.00,0.2204
9698.00,0.2205
9697.00,0.2206
9696.00,0.2206
9695.00,0.2206
9694.00,0.2206
9693.00,0.2206
9692.00,0.2206
9691.00,0.2205
9690.00,0.2205
9689.00,0.2204
9688.00,0.2204
9687.00,0.2204
9686.00,0.2203
9685.00,0.2202
9684.00,0.2201
9683.00,0.2201
9682.00,0.2202
9681.00,0.2202
9680.00,0.2202
9679.00,0.2201
9678.00,0.2200
9677.00,0.2200
9676.00,0.2201
9675.00,0.2201
9674.00,0.2200
9673.00,0.2199
9672.00,0.2198
9671.00,0.2197
9670.00,0.2196
9669.00,0.2195
9668.00,0.2195
9667.00,0.2196
9666.00,0.2196
9665.00,0.2197
9664.00,0.2197
9663.00,0.2198
9662.00,0.2198
9661.00,0.2198
9660.00,0.2199
9659.00,0.2201
9658.00,0.2201
9657.00,0.2201
9656.00,0.2200
9655.00,0.2199
9654.00,0.2199
9653.00,0.2198
9652.00,0.2199
9651.00,0.2198
9650.00,0.2197
9649.00,0.2195
9648.00,0.2194
9647.00,0.2194
9646.00,0.2195
9645.00,0.2196
9644.00,0.2196
9643.00,0.2196
9642.00,0.2196
9641.00,0.2196
9640.00,0.2196
9639.00,0.2196
9638.00,0.2196
9637.00,0.2197
9636.00,0.2196
9635.00,0.2195
9634.00,0.2194
9633.00,0.2193
9632.00,0.2192
9631.00,0.2191
9630.00,0.2192
9629.00,0.2193
9628.00,0.2194
9627.00,0.2195
9626.00,0.2194
9625.00,0.2193
9624.00,0.2193
9623.00,0.2193
9622.00,0.2194
9621.00,0.2194
9620.00,0.2194
9619.00,0.2193
9618.00,0.2193
9617.00,0.2193
9616.00,0.2194
9615.00,0.2195
9614.00,0.2196
9613.00,0.2196
9612.00,0.2196
9611.00,0.2195
9610.00,0.2195
9609.00,0.2194
9608.00,0.2194
9607.00,0.2193
9606.00,0.2193
9605.00,0.2193
9604.00,0.2193
9603.00,0.2193
9602.00,0.2193
9601.00,0.2193
9600.00,0.2192
9599.00,0.2192
9598.00,0.2191
9597.00,0.2191
9596.00,0.2191
9595.00,0.2191
9594.00,0.2191
9593.00,0.2191
9592.00,0.2190
9591.00,0.2190
9590.00,0.2190
9589.00,0.2190
9588.00,0.2190
9587.00,0.2189
9586.00,0.2187
9585.00,0.2186
9584.00,0.2185
9583.00,0.2185
9582.00,0.2185
9581.00,0.2185
9580.00,0.2185
9579.00,0.2185
9578.00,0.2186
9577.00,0.2187
9576.00,0.2187
9575.00,0.2186
9574.00,0.2186
9573.00,0.2186
9572.00,0.2188
9571.00,0.2189
9570.00,0.2190
9569.00,0.2189
9568.00,0.2188
9567.00,0.2187
9566.00,0.2187
9565.00,0.2188
9564.00,0.2188
9563.00,0.2188
9562.00,0.2187
9561.00,0.2186
9560.00,0.2186
9559.00,0.2186
9558.00,0.2186
9557.00,0.2186
9556.00,0.2185
9555.00,0.2186
9554.00,0.2186
9553.00,0.2186
9552.00,0.2185
9551.00,0.2184
9550.00,0.2183
9549.00,0.2183
9548.00,0.2184
9547.00,0.2185
9546.00,0.2186
9545.00,0.2186
9544.00,0.2187
9543.00,0.2188
9542.00,0.2189
9541.00,0.2190
9540.00,0.2190
9539.00,0.2189
9538.00,0.2189
9537.00,0.2188
9536.00,0.2189
9535.00,0.2188
9534.00,0.2188
9533.00,0.2186
9532.00,0.2185
9531.00,0.2184
9530.00,0.2183
9529.00,0.2183
9528.00,0.2182
9527.00,0.2181
9526.00,0.2179
9525.00,0.2178
9524.00,0.2177
9523.00,0.2177
9522.00,0.2177
9521.00,0.2177
9520.00,0.2177
9519.00,0.2178
9518.00,0.2179
9517.00,0.2180
9516.00,0.2182
9515.00,0.2183
9514.00,0.2184
9513.00,0.2184
9512.00,0.2185
9511.00,0.2185
9510.00,0.2186
9509.00,0.2186
9508.00,0.2186
9507.00,0.2186
9506.00,0.2186
9505.00,0.2185
9504.00,0.2186
9503.00,0.2186
9502.00,0.2186
9501.00,0.2186
9500.00,0.2185
9499.00,0.2183
9498.00,0.2181
9497.00,0.2180
9496.00,0.2179
9495.00,0.2179
9494.00,0.2179
9493.00,0.2178
9492.00,0.2177
9491.00,0.2176
9490.00,0.2177
9489.00,0.2179
9488.00,0.2181
9487.00,0.2182
9486.00,0.2182
9485.00,0.2181
9484.00,0.2180
9483.00,0.2180
9482.00,0.2180
9481.00,0.2181
9480.00,0.2182
9479.00,0.2181
9478.00,0.2180
9477.00,0.2178
9476.00,0.2177
9475.00,0.2178
9474.00,0.2179
9473.00,0.2180
9472.00,0.2181
9471.00,0.2181
9470.00,0.2180
9469.00,0.2180
9468.00,0.2179
9467.00,0.2179
9466.00,0.2178
9465.00,0.2178
9464.00,0.2177
9463.00,0.2177
9462.00,0.2177
9461.00,0.2176
9460.00,0.2175
9459.00,0.2174
9458.00,0.2173
9457.00,0.2173
9456.00,0.2173
9455.00,0.2173
9454.00,0.2172
9453.00,0.2171
9452.00,0.2171
9451.00,0.2171
9450.00,0.2170
9449.00,0.2170
9448.00,0.2170
9447.00,0.2170
9446.00,0.2171
9445.00,0.2172
9444.00,0.2173
9443.00,0.2173
9442.00,0.2173
9441.00,0.2173
9440.00,0.2174
9439.00,0.2175
9438.00,0.2175
9437.00,0.2175
9436.00,0.2175
9435.00,0.2176
9434.00,0.2176
9433.00,0.2176
9432.00,0.2176
9431.00,0.2176
9430.00,0.2175
9429.00,0.2174
9428.00,0.2174
9427.00,0.2173
9426.00,0.2173
9425.00,0.2173
9424.00,0.2174
9423.00,0.2176
9422.00,0.2176
9421.00,0.2176
9420.00,0.2175
9419.00,0.2174
9418.00,0.2174
9417.00,0.2174
9416.00,0.2174
9415.00,0.2173
9414.00,0.2172
9413.00,0.2171
9412.00,0.2170
9411.00,0.2171
9410.00,0.2172
9409.00,0.2173
9408.00,0.2174
9407.00,0.2174
9406.00,0.2173
9405.00,0.2172
9404.00,0.2171
9403.00,0.2171
9402.00,0.2171
9401.00,0.2170
9400.00,0.2170
9399.00,0.2169
9398.00,0.2169
9397.00,0.2169
9396.00,0.2169
9395.00,0.2169
9394.00,0.2168
9393.00,0.2166
9392.00,0.2165
9391.00,0.2165
9390.00,0.2166
9389.00,0.2166
9388.00,0.2166
9387.00,0.2165
9386.00,0.2164
9385.00,0.2164
9384.00,0.2165
9383.00,0.2167
9382.00,0.2167
9381.00,0.2167
9380.00,0.2166
9379.00,0.2166
9378.00,0.2166
9377.00,0.2166
9376.00,0.2166
9375.00,0.2165
9374.00,0.2165
9373.00,0.2165
9372.00,0.2165
9371.00,0.2164
9370.00,0.2162
9369.00,0.2160
9368.00,0.2160
9367.00,0.2161
9366.00,0.2162
9365.00,0.2162
9364.00,0.2162
9363.00,0.2162
9362.00,0.2162
9361.00,0.2163
9360.00,0.2165
9359.00,0.2166
9358.00,0.2167
9357.00,0.2168
9356.00,0.2168
9355.00,0.2168
9354.00,0.2168
9353.00,0.2167
9352.00,0.2166
9351.00,0.2166
9350.00,0.2166
9349.00,0.2166
9348.00,0.2164
9347.00,0.2162
9346.00,0.2161
9345.00,0.2161
9344.00,0.2162
9343.00,0.2163
9342.00,0.2163
9341.00,0.2162
9340.00,0.2162
9339.00,0.2162
9338.00,0.2162
9337.00,0.2163
9336.00,0.2162
9335.00,0.2161
9334.00,0.2161
9333.00,0.2162
9332.00,0.2162
9331.00,0.2163
9330.00,0.2162
9329.00,0.2160
9328.00,0.2159
9327.00,0.2159
9326.00,0.2159
9325.00,0.2160
9324.00,0.2160
9323.00,0.2159
9322.00,0.2158
9321.00,0.2157
9320.00,0.2156
9319.00,0.2157
9318.00,0.2159
9317.00,0.2160
9316.00,0.2160
9315.00,0.2159
9314.00,0.2158
9313.00,0.2157
9312.00,0.2157
9311.00,0.2158
9310.00,0.2159
9309.00,0.2159
9308.00,0.2160
9307.00,0.2160
9306.00,0.2159
9305.00,0.2159
9304.00,0.2160
9303.00,0.2161
9302.00,0.2161
9301.00,0.2161
9300.00,0.2160
9299.00,0.2159
9298.00,0.2158
9297.00,0.2157
9296.00,0.2156
9295.00,0.2156
9294.00,0.2156
9293.00,0.2156
9292.00,0.2156
9291.00,0.2156
9290.00,0.2156
9289.00,0.2156
9288.00,0.2157
9287.00,0.2157
9286.00,0.2157
9285.00,0.2157
9284.00,0.2156
9283.00,0.2154
9282.00,0.2153
9281.00,0.2153
9280.00,0.2153
9279.00,0.2153
9278.00,0.2153
9277.00,0.2154
9276.00,0.2155
9275.00,0.2156
9274.00,0.2157
9273.00,0.2158
9272.00,0.2157
9271.00,0.2156
9270.00,0.2155
9269.00,0.2156
9268.00,0.2157
9267.00,0.2158
9266.00,0.2156
9265.00,0.2155
9264.00,0.2153
9263.00,0.2153
9262.00,0.2154
9261.00,0.2155
9260.00,0.2155
9259.00,0.2154
9258.00,0.2152
9257.00,0.2151
9256.00,0.2151
9255.00,0.2151
9254.00,0.2152
9253.00,0.2152
9252.00,0.2151
9251.00,0.2151
9250.00,0.2151
9249.00,0.2152
9248.00,0.2152
9247.00,0.2153
9246.00,0.2153
9245.00,0.2153
9244.00,0.2153
9243.00,0.2153
9242.00,0.2154
9241.00,0.2154
9240.00,0.2154
9239.00,0.2154
9238.00,0.2153
9237.00,0.2152
9236.00,0.2152
9235.00,0.2152
9234.00,0.2153
9233.00,0.2153
9232.00,0.2153
9231.00,0.2153
9230.00,0.2153
9229.00,0.2153
9228.00,0.2153
9227.00,0.2154
9226.00,0.2153
9225.00,0.2153
9224.00,0.2152
9223.00,0.2150
9222.00,0.2149
9221.00,0.2149
9220.00,0.2149
9219.00,0.2149
9218.00,0.2150
9217.00,0.2150
9216.00,0.2150
9215.00,0.2149
9214.00,0.2149
9213.00,0.2149
9212.00,0.2151
9211.00,0.2152
9210.00,0.2152
9209.00,0.2150
9208.00,0.2149
9207.00,0.2149
9206.00,0.2149
9205.00,0.2150
9204.00,0.2150
9203.00,0.2150
9202.00,0.2149
9201.00,0.2148
9200.00,0.2149
9199.00,0.2150
9198.00,0.2151
9197.00,0.2151
9196.00,0.2152
9195.00,0.2152
9194.00,0.2151
9193.00,0.2150
9192.00,0.2149
9191.00,0.2147
9190.00,0.2146
9189.00,0.2145
9188.00,0.2144
9187.00,0.2143
9186.00,0.2143
9185.00,0.2142
9184.00,0.2143
9183.00,0.2144
9182.00,0.2145
9181.00,0.2147
9180.00,0.2149
9179.00,0.2149
9178.00,0.2148
9177.00,0.2147
9176.00,0.2146
9175.00,0.2146
9174.00,0.2146
9173.00,0.2146
9172.00,0.2145
9171.00,0.2144
9170.00,0.2144
9169.00,0.2144
9168.00,0.2144
9167.00,0.2144
9166.00,0.2144
9165.00,0.2143
9164.00,0.2142
9163.00,0.2142
9162.00,0.2143
9161.00,0.2143
9160.00,0.2143
9159.00,0.2143
9158.00,0.2143
9157.00,0.2143
9156.00,0.2144
9155.00,0.2144
9154.00,0.2143
9153.00,0.2142
9152.00,0.2142
9151.00,0.2142
9150.00,0.2142
9149.00,0.2142
9148.00,0.2142
9147.00,0.2141
9146.00,0.2142
9145.00,0.2143
9144.00,0.2144
9143.00,0.2144
9142.00,0.2144
9141.00,0.2144
9140.00,0.2144
9139.00,0.2145
9138.00,0.2145
9137.00,0.2145
9136.00,0.2145
9135.00,0.2144
9134.00,0.2143
9133.00,0.2142
9132.00,0.2141
9131.00,0.2141
9130.00,0.2141
9129.00,0.2142
9128.00,0.2142
9127.00,0.2141
9126.00,0.2140
9125.00,0.2139
9124.00,0.2139
9123.00,0.2139
9122.00,0.2139
9121.00,0.2139
9120.00,0.2139
9119.00,0.2139
9118.00,0.2140
9117.00,0.2140
9116.00,0.2140
9115.00,0.2140
9114.00,0.2139
9113.00,0.2139
9112.00,0.2139
9111.00,0.2139
9110.00,0.2139
9109.00,0.2138
9108.00,0.2138
9107.00,0.2138
9106.00,0.2139
9105.00,0.2139
9104.00,0.2140
9103.00,0.2140
9102.00,0.2139
9101.00,0.2139
9100.00,0.2139
9099.00,0.2138
9098.00,0.2138
9097.00,0.2138
9096.00,0.2138
9095.00,0.2137
9094.00,0.2137
9093.00,0.2136
9092.00,0.2136
9091.00,0.2136
9090.00,0.2137
9089.00,0.2138
9088.00,0.2139
9087.00,0.2139
9086.00,0.2139
9085.00,0.2139
9084.00,0.2139
9083.00,0.2139
9082.00,0.2140
9081.00,0.2140
9080.00,0.2140
9079.00,0.2138
9078.00,0.2137
9077.00,0.2135
9076.00,0.2135
9075.00,0.2135
9074.00,0.2136
9073.00,0.2136
9072.00,0.2136
9071.00,0.2135
9070.00,0.2135
9069.00,0.2135
9068.00,0.2136
9067.00,0.2137
9066.00,0.2137
9065.00,0.2136
9064.00,0.2136
9063.00,0.2135
9062.00,0.2135
9061.00,0.2135
9060.00,0.2135
9059.00,0.2135
9058.00,0.2135
9057.00,0.2135
9056.00,0.2134
9055.00,0.2134
9054.00,0.2133
9053.00,0.2132
9052.00,0.2132
9051.00,0.2133
9050.00,0.2133
9049.00,0.2133
9048.00,0.2133
9047.00,0.2133
9046.00,0.2133
9045.00,0.2133
9044.00,0.2135
9043.00,0.2136
9042.00,0.2136
9041.00,0.2135
9040.00,0.2133
9039.00,0.2133
9038.00,0.2133
9037.00,0.2134
9036.00,0.2135
9035.00,0.2134
9034.00,0.2134
9033.00,0.2133
9032.00,0.2134
9031.00,0.2136
9030.00,0.2136
9029.00,0.2136
9028.00,0.2134
9027.00,0.2133
9026.00,0.2132
9025.00,0.2132
9024.00,0.2132
9023.00,0.2132
9022.00,0.2131
9021.00,0.2130
9020.00,0.2131
9019.00,0.2131
9018.00,0.2132
9017.00,0.2133
9016.00,0.2133
9015.00,0.2133
9014.00,0.2133
9013.00,0.2133
9012.00,0.2134
9011.00,0.2134
9010.00,0.2133
9009.00,0.2132
9008.00,0.2131
9007.00,0.2130
9006.00,0.2129
9005.00,0.2129
9004.00,0.2129
9003.00,0.2129
9002.00,0.2129
9001.00,0.2129
9000.00,0.2129
8999.00,0.2129
8998.00,0.2130
8997.00,0.2130
8996.00,0.2131
8995.00,0.2131
8994.00,0.2131
8993.00,0.2130
8992.00,0.2129
8991.00,0.2128
8990.00,0.2128
8989.00,0.2128
8988.00,0.2129
8987.00,0.2130
8986.00,0.2130
8985.00,0.2129
8984.00,0.2129
8983.00,0.2129
8982.00,0.2130
8981.00,0.2132
8980.00,0.2134
8979.00,0.2134
8978.00,0.2133
8977.00,0.2131
8976.00,0.2130
8975.00,0.2130
8974.00,0.2130
8973.00,0.2130
8972.00,0.2129
8971.00,0.2128
8970.00,0.2127
8969.00,0.2127
8968.00,0.2127
8967.00,0.2127
8966.00,0.2126
8965.00,0.2126
8964.00,0.2127
8963.00,0.2127
8962.00,0.2128
8961.00,0.2127
8960.00,0.2127
8959.00,0.2126
8958.00,0.2126
8957.00,0.2126
8956.00,0.2127
8955.00,0.2127
8954.00,0.2127
8953.00,0.2126
8952.00,0.2124
8951.00,0.2124
8950.00,0.2124
8949.00,0.2124
8948.00,0.2125
8947.00,0.2125
8946.00,0.2125
8945.00,0.2125
8944.00,0.2124
8943.00,0.2124
8942.00,0.2124
8941.00,0.2125
8940.00,0.2126
8939.00,0.2126
8938.00,0.2126
8937.00,0.2126
8936.00,0.2126
8935.00,0.2127
8934.00,0.2128
8933.00,0.2128
8932.00,0.2128
8931.00,0.2127
8930.00,0.2127
8929.00,0.2127
8928.00,0.2127
8927.00,0.2127
8926.00,0.2126
8925.00,0.2126
8924.00,0.2125
8923.00,0.2125
8922.00,0.2125
8921.00,0.2126
8920.00,0.2126
8919.00,0.2126
8918.00,0.2125
8917.00,0.2124
8916.00,0.2123
8915.00,0.2124
8914.00,0.2125
8913.00,0.2125
8912.00,0.2125
8911.00,0.2124
8910.00,0.2125
8909.00,0.2126
8908.00,0.2127
8907.00,0.2128
8906.00,0.2128
8905.00,0.2128
8904.00,0.2128
8903.00,0.2128
8902.00,0.2128
8901.00,0.2128
8900.00,0.2128
8899.00,0.2128
8898.00,0.2128
8897.00,0.2128
8896.00,0.2128
8895.00,0.2127
8894.00,0.2126
8893.00,0.2125
8892.00,0.2126
8891.00,0.2127
8890.00,0.2128
8889.00,0.2127
8888.00,0.2127
8887.00,0.2126
8886.00,0.2126
8885.00,0.2128
8884.00,0.2129
8883.00,0.2129
8882.00,0.2128
8881.00,0.2128
8880.00,0.2128
8879.00,0.2129
8878.00,0.2129
8877.00,0.2130
8876.00,0.2129
8875.00,0.2128
8874.00,0.2127
8873.00,0.2126
8872.00,0.2126
8871.00,0.2126
8870.00,0.2127
8869.00,0.2127
8868.00,0.2127
8867.00,0.2128
8866.00,0.2128
8865.00,0.2130
8864.00,0.2130
8863.00,0.2130
8862.00,0.2129
8861.00,0.2128
8860.00,0.2128
8859.00,0.2128
8858.00,0.2128
8857.00,0.2129
8856.00,0.2129
8855.00,0.2129
8854.00,0.2130
8853.00,0.2130
8852.00,0.2130
8851.00,0.2130
8850.00,0.2130
8849.00,0.2130
8848.00,0.2130
8847.00,0.2129
8846.00,0.2127
8845.00,0.2127
8844.00,0.2128
8843.00,0.2129
8842.00,0.2130
8841.00,0.2130
8840.00,0.2130
8839.00,0.2130
8838.00,0.2131
8837.00,0.2133
8836.00,0.2134
8835.00,0.2135
8834.00,0.2136
8833.00,0.2135
8832.00,0.2134
8831.00,0.2133
8830.00,0.2132
8829.00,0.2132
8828.00,0.2132
8827.00,0.2132
8826.00,0.2132
8825.00,0.2133
8824.00,0.2133
8823.00,0.2134
8822.00,0.2135
8821.00,0.2137
8820.00,0.2139
8819.00,0.2141
8818.00,0.2141
8817.00,0.2141
8816.00,0.2140
8815.00,0.2140
8814.00,0.2140
8813.00,0.2140
8812.00,0.2140
8811.00,0.2139
8810.00,0.2138
8809.00,0.2138
8808.00,0.2138
8807.00,0.2138
8806.00,0.2138
8805.00,0.2138
8804.00,0.2137
8803.00,0.2137
8802.00,0.2137
8801.00,0.2137
8800.00,0.2138
8799.00,0.2138
8798.00,0.2138
8797.00,0.2138
8796.00,0.2138
8795.00,0.2139
8794.00,0.2140
8793.00,0.2142
8792.00,0.2143
8791.00,0.2143
8790.00,0.2143
8789.00,0.2143
8788.00,0.2144
8787.00,0.2145
8786.00,0.2145
8785.00,0.2145
8784.00,0.2145
8783.00,0.2145
8782.00,0.2145
8781.00,0.2146
8780.00,0.2147
8779.00,0.2148
8778.00,0.2149
8777.00,0.2150
8776.00,0.2150
8775.00,0.2150
8774.00,0.2149
8773.00,0.2149
8772.00,0.2149
8771.00,0.2149
8770.00,0.2149
8769.00,0.2149
8768.00,0.2149
8767.00,0.2150
8766.00,0.2152
8765.00,0.2153
8764.00,0.2154
8763.00,0.2155
8762.00,0.2155
8761.00,0.2155
8760.00,0.2155
8759.00,0.2156
8758.00,0.2156
8757.00,0.2155
8756.00,0.2154
8755.00,0.2153
8754.00,0.2152
8753.00,0.2152
8752.00,0.2153
8751.00,0.2153
8750.00,0.2154
8749.00,0.2155
8748.00,0.2155
8747.00,0.2157
8746.00,0.2159
8745.00,0.2161
8744.00,0.2164
8743.00,0.2165
8742.00,0.2165
8741.00,0.2165
8740.00,0.2164
8739.00,0.2164
8738.00,0.2164
8737.00,0.2164
8736.00,0.2163
8735.00,0.2162
8734.00,0.2161
8733.00,0.2162
8732.00,0.2162
8731.00,0.2163
8730.00,0.2163
8729.00,0.2164
8728.00,0.2165
8727.00,0.2166
8726.00,0.2167
8725.00,0.2168
8724.00,0.2167
8723.00,0.2167
8722.00,0.2167
8721.00,0.2168
8720.00,0.2169
8719.00,0.2169
8718.00,0.2169
8717.00,0.2169
8716.00,0.2170
8715.00,0.2171
8714.00,0.2171
8713.00,0.2171
8712.00,0.2171
8711.00,0.2171
8710.00,0.2173
8709.00,0.2174
8708.00,0.2175
8707.00,0.2175
8706.00,0.2175
8705.00,0.2177
8704.00,0.2179
8703.00,0.2181
8702.00,0.2182
8701.00,0.2181
8700.00,0.2181
8699.00,0.2181
8698.00,0.2182
8697.00,0.2182
8696.00,0.2182
8695.00,0.2181
8694.00,0.2181
8693.00,0.2181
8692.00,0.2182
8691.00,0.2183
8690.00,0.2184
8689.00,0.2184
8688.00,0.2184
8687.00,0.2185
8686.00,0.2186
8685.00,0.2188
8684.00,0.2189
8683.00,0.2190
8682.00,0.2191
8681.00,0.2193
8680.00,0.2195
8679.00,0.2196
8678.00,0.2197
8677.00,0.2196
8676.00,0.2195
8675.00,0.2195
8674.00,0.2194
8673.00,0.2195
8672.00,0.2195
8671.00,0.2195
8670.00,0.2195
8669.00,0.2196
8668.00,0.2198
8667.00,0.2200
8666.00,0.2202
8665.00,0.2203
8664.00,0.2203
8663.00,0.2202
8662.00,0.2202
8661.00,0.2203
8660.00,0.2204
8659.00,0.2204
8658.00,0.2204
8657.00,0.2204
8656.00,0.2204
8655.00,0.2205
8654.00,0.2206
8653.00,0.2207
8652.00,0.2207
8651.00,0.2208
8650.00,0.2208
8649.00,0.2210
8648.00,0.2212
8647.00,0.2213
8646.00,0.2214
8645.00,0.2214
8644.00,0.2214
8643.00,0.2215
8642.00,0.2216
8641.00,0.2216
8640.00,0.2216
8639.00,0.2217
8638.00,0.2218
8637.00,0.2218
8636.00,0.2219
8635.00,0.2220
8634.00,0.2221
8633.00,0.2221
8632.00,0.2222
8631.00,0.2223
8630.00,0.2224
8629.00,0.2224
8628.00,0.2224
8627.00,0.2224
8626.00,0.2225
8625.00,0.2227
8624.00,0.2228
8623.00,0.2229
8622.00,0.2229
8621.00,0.2229
8620.00,0.2229
8619.00,0.2230
8618.00,0.2232
8617.00,0.2232
8616.00,0.2232
8615.00,0.2231
8614.00,0.2230
8613.00,0.2230
8612.00,0.2232
8611.00,0.2233
8610.00,0.2235
8609.00,0.2236
8608.00,0.2237
8607.00,0.2239
8606.00,0.2241
8605.00,0.2243
8604.00,0.2244
8603.00,0.2244
8602.00,0.2243
8601.00,0.2242
8600.00,0.2242
8599.00,0.2242
8598.00,0.2244
8597.00,0.2245
8596.00,0.2245
8595.00,0.2245
8594.00,0.2245
8593.00,0.2247
8592.00,0.2249
8591.00,0.2251
8590.00,0.2251
8589.00,0.2250
8588.00,0.2250
8587.00,0.2249
8586.00,0.2250
8585.00,0.2250
8584.00,0.2251
8583.00,0.2251
8582.00,0.2251
8581.00,0.2252
8580.00,0.2253
8579.00,0.2253
8578.00,0.2254
8577.00,0.2254
8576.00,0.2255
8575.00,0.2256
8574.00,0.2257
8573.00,0.2257
8572.00,0.2258
8571.00,0.2258
8570.00,0.2259
8569.00,0.2261
8568.00,0.2262
8567.00,0.2263
8566.00,0.2263
8565.00,0.2263
8564.00,0.2263
8563.00,0.2263
8562.00,0.2264
8561.00,0.2264
8560.00,0.2264
8559.00,0.2264
8558.00,0.2264
8557.00,0.2264
8556.00,0.2264
8555.00,0.2265
8554.00,0.2266
8553.00,0.2266
8552.00,0.2267
8551.00,0.2267
8550.00,0.2268
8549.00,0.2269
8548.00,0.2270
8547.00,0.2271
8546.00,0.2272
8545.00,0.2272
8544.00,0.2271
8543.00,0.2271
8542.00,0.2271
8541.00,0.2271
8540.00,0.2272
8539.00,0.2273
8538.00,0.2273
8537.00,0.2273
8536.00,0.2274
8535.00,0.2274
8534.00,0.2275
8533.00,0.2275
8532.00,0.2276
8531.00,0.2276
8530.00,0.2277
8529.00,0.2278
8528.00,0.2278
8527.00,0.2279
8526.00,0.2280
8525.00,0.2281
8524.00,0.2283
8523.00,0.2284
8522.00,0.2285
8521.00,0.2284
8520.00,0.2284
8519.00,0.2283
8518.00,0.2284
8517.00,0.2285
8516.00,0.2286
8515.00,0.2287
8514.00,0.2288
8513.00,0.2288
8512.00,0.2288
8511.00,0.2288
8510.00,0.2289
8509.00,0.2290
8508.00,0.2290
8507.00,0.2290
8506.00,0.2290
8505.00,0.2290
8504.00,0.2292
8503.00,0.2293
8502.00,0.2294
8501.00,0.2294
8500.00,0.2294
8499.00,0.2294
8498.00,0.2295
8497.00,0.2296
8496.00,0.2296
8495.00,0.2296
8494.00,0.2296
8493.00,0.2297
8492.00,0.2298
8491.00,0.2299
8490.00,0.2299
8489.00,0.2299
8488.00,0.2298
8487.00,0.2298
8486.00,0.2298
8485.00,0.2299
8484.00,0.2301
8483.00,0.2302
8482.00,0.2303
8481.00,0.2304
8480.00,0.2305
8479.00,0.2306
8478.00,0.2307
8477.00,0.2307
8476.00,0.2307
8475.00,0.2308
8474.00,0.2308
8473.00,0.2308
8472.00,0.2308
8471.00,0.2309
8470.00,0.2310
8469.00,0.2311
8468.00,0.2311
8467.00,0.2312
8466.00,0.2311
8465.00,0.2311
8464.00,0.2311
8463.00,0.2311
8462.00,0.2312
8461.00,0.2313
8460.00,0.2313
8459.00,0.2313
8458.00,0.2313
8457.00,0.2314
8456.00,0.2315
8455.00,0.2316
8454.00,0.2317
8453.00,0.2317
8452.00,0.2317
8451.00,0.2317
8450.00,0.2317
8449.00,0.2317
8448.00,0.2318
8447.00,0.2318
8446.00,0.2318
8445.00,0.2317
8444.00,0.2317
8443.00,0.2318
8442.00,0.2318
8441.00,0.2319
8440.00,0.2320
8439.00,0.2321
8438.00,0.2323
8437.00,0.2324
8436.00,0.2324
8435.00,0.2325
8434.00,0.2325
8433.00,0.2325
8432.00,0.2326
8431.00,0.2326
8430.00,0.2325
8429.00,0.2325
8428.00,0.2325
8427.00,0.2326
8426.00,0.2328
8425.00,0.2329
8424.00,0.2330
8423.00,0.2331
8422.00,0.2331
8421.00,0.2333
8420.00,0.2334
8419.00,0.2335
8418.00,0.2334
8417.00,0.2333
8416.00,0.2333
8415.00,0.2333
8414.00,0.2333
8413.00,0.2333
8412.00,0.2331
8411.00,0.2330
8410.00,0.2329
8409.00,0.2330
8408.00,0.2331
8407.00,0.2331
8406.00,0.2332
8405.00,0.2332
8404.00,0.2333
8403.00,0.2334
8402.00,0.2334
8401.00,0.2335
8400.00,0.2335
8399.00,0.2335
8398.00,0.2335
8397.00,0.2335
8396.00,0.2335
8395.00,0.2335
8394.00,0.2335
8393.00,0.2336
8392.00,0.2336
8391.00,0.2337
8390.00,0.2337
8389.00,0.2337
8388.00,0.2337
8387.00,0.2337
8386.00,0.2338
8385.00,0.2339
8384.00,0.2340
8383.00,0.2340
8382.00,0.2340
8381.00,0.2339
8380.00,0.2339
8379.00,0.2339
8378.00,0.2339
8377.00,0.2339
8376.00,0.2339
8375.00,0.2339
8374.00,0.2338
8373.00,0.2338
8372.00,0.2339
8371.00,0.2340
8370.00,0.2340
8369.00,0.2340
8368.00,0.2339
8367.00,0.2339
8366.00,0.2340
8365.00,0.2341
8364.00,0.2342
8363.00,0.2342
8362.00,0.2341
8361.00,0.2341
8360.00,0.2340
8359.00,0.2340
8358.00,0.2340
8357.00,0.2340
8356.00,0.2340
8355.00,0.2341
8354.00,0.2342
8353.00,0.2343
8352.00,0.2344
8351.00,0.2344
8350.00,0.2344
8349.00,0.2344
8348.00,0.2344
8347.00,0.2343
8346.00,0.2342
8345.00,0.2341
8344.00,0.2341
8343.00,0.2341
8342.00,0.2342
8341.00,0.2343
8340.00,0.2343
8339.00,0.2344
8338.00,0.2344
8337.00,0.2344
8336.00,0.2344
8335.00,0.2343
8334.00,0.2343
8333.00,0.2342
8332.00,0.2342
8331.00,0.2342
8330.00,0.2342
8329.00,0.2342
8328.00,0.2341
8327.00,0.2341
8326.00,0.2342
8325.00,0.2343
8324.00,0.2343
8323.00,0.2343
8322.00,0.2342
8321.00,0.2343
8320.00,0.2343
8319.00,0.2344
8318.00,0.2344
8317.00,0.2343
8316.00,0.2342
8315.00,0.2342
8314.00,0.2342
8313.00,0.2342
8312.00,0.2341
8311.00,0.2340
8310.00,0.2340
8309.00,0.2340
8308.00,0.2340
8307.00,0.2341
8306.00,0.2342
8305.00,0.2342
8304.00,0.2343
8303.00,0.2343
8302.00,0.2344
8301.00,0.2345
8300.00,0.2345
8299.00,0.2344
8298.00,0.2343
8297.00,0.2342
8296.00,0.2342
8295.00,0.2343
8294.00,0.2344
8293.00,0.2344
8292.00,0.2343
8291.00,0.2342
8290.00,0.2342
8289.00,0.2342
8288.00,0.2342
8287.00,0.2342
8286.00,0.2341
8285.00,0.2340
8284.00,0.2339
8283.00,0.2340
8282.00,0.2340
8281.00,0.2341
8280.00,0.2341
8279.00,0.2341
8278.00,0.2340
8277.00,0.2339
8276.00,0.2339
8275.00,0.2339
8274.00,0.2340
8273.00,0.2339
8272.00,0.2338
8271.00,0.2337
8270.00,0.2337
8269.00,0.2337
8268.00,0.2337
8267.00,0.2337
8266.00,0.2336
8265.00,0.2336
8264.00,0.2336
8263.00,0.2336
8262.00,0.2336
8261.00,0.2336
8260.00,0.2335
8259.00,0.2335
8258.00,0.2336
8257.00,0.2336
8256.00,0.2337
8255.00,0.2337
8254.00,0.2337
8253.00,0.2337
8252.00,0.2337
8251.00,0.2336
8250.00,0.2336
8249.00,0.2336
8248.00,0.2335
8247.00,0.2333
8246.00,0.2332
8245.00,0.2332
8244.00,0.2333
8243.00,0.2334
8242.00,0.2335
8241.00,0.2335
8240.00,0.2335
8239.00,0.2335
8238.00,0.2334
8237.00,0.2334
8236.00,0.2333
8235.00,0.2332
8234.00,0.2331
8233.00,0.2331
8232.00,0.2331
8231.00,0.2330
8230.00,0.2330
8229.00,0.2330
8228.00,0.2330
8227.00,0.2330
8226.00,0.2329
8225.00,0.2329
8224.00,0.2329
8223.00,0.2329
8222.00,0.2329
8221.00,0.2329
8220.00,0.2329
8219.00,0.2329
8218.00,0.2329
8217.00,0.2329
8216.00,0.2329
8215.00,0.2329
8214.00,0.2328
8213.00,0.2327
8212.00,0.2326
8211.00,0.2326
8210.00,0.2326
8209.00,0.2326
8208.00,0.2326
8207.00,0.2326
8206.00,0.2326
8205.00,0.2325
8204.00,0.2325
8203.00,0.2324
8202.00,0.2324
8201.00,0.2325
8200.00,0.2325
8199.00,0.2325
8198.00,0.2324
8197.00,0.2324
8196.00,0.2324
8195.00,0.2325
8194.00,0.2325
8193.00,0.2324
8192.00,0.2323
8191.00,0.2322
8190.00,0.2321
8189.00,0.2320
8188.00,0.2320
8187.00,0.2320
8186.00,0.2320
8185.00,0.2320
8184.00,0.2320
8183.00,0.2319
8182.00,0.2318
8181.00,0.2317
8180.00,0.2317
8179.00,0.2317
8178.00,0.2316
8177.00,0.2315
8176.00,0.2314
8175.00,0.2314
8174.00,0.2314
8173.00,0.2315
8172.00,0.2316
8171.00,0.2315
8170.00,0.2314
8169.00,0.2314
8168.00,0.2314
8167.00,0.2313
8166.00,0.2313
8165.00,0.2313
8164.00,0.2312
8163.00,0.2312
8162.00,0.2311
8161.00,0.2312
8160.00,0.2312
8159.00,0.2312
8158.00,0.2312
8157.00,0.2312
8156.00,0.2311
8155.00,0.2310
8154.00,0.2309
8153.00,0.2307
8152.00,0.2306
8151.00,0.2306
8150.00,0.2306
8149.00,0.2306
8148.00,0.2306
8147.00,0.2306
8146.00,0.2306
8145.00,0.2306
8144.00,0.2306
8143.00,0.2305
8142.00,0.2304
8141.00,0.2303
8140.00,0.2302
8139.00,0.2301
8138.00,0.2301
8137.00,0.2301
8136.00,0.2300
8135.00,0.2299
8134.00,0.2299
8133.00,0.2298
8132.00,0.2298
8131.00,0.2299
8130.00,0.2299
8129.00,0.2298
8128.00,0.2298
8127.00,0.2298
8126.00,0.2299
8125.00,0.2299
8124.00,0.2299
8123.00,0.2299
8122.00,0.2298
8121.00,0.2297
8120.00,0.2296
8119.00,0.2296
8118.00,0.2295
8117.00,0.2295
8116.00,0.2295
8115.00,0.2295
8114.00,0.2295
8113.00,0.2295
8112.00,0.2294
8111.00,0.2294
8110.00,0.2293
8109.00,0.2293
8108.00,0.2292
8107.00,0.2292
8106.00,0.2292
8105.00,0.2291
8104.00,0.2291
8103.00,0.2292
8102.00,0.2292
8101.00,0.2293
8100.00,0.2293
8099.00,0.2293
8098.00,0.2292
8097.00,0.2292
8096.00,0.2291
8095.00,0.2289
8094.00,0.2288
8093.00,0.2287
8092.00,0.2287
8091.00,0.2286
8090.00,0.2286
8089.00,0.2285
8088.00,0.2285
8087.00,0.2284
8086.00,0.2284
8085.00,0.2283
8084.00,0.2282
8083.00,0.2282
8082.00,0.2282
8081.00,0.2282
8080.00,0.2282
8079.00,0.2282
8078.00,0.2282
8077.00,0.2282
8076.00,0.2282
8075.00,0.2282
8074.00,0.2282
8073.00,0.2281
8072.00,0.2280
8071.00,0.2280
8070.00,0.2279
8069.00,0.2279
8068.00,0.2279
8067.00,0.2279
8066.00,0.2279
8065.00,0.2280
8064.00,0.2280
8063.00,0.2281
8062.00,0.2280
8061.00,0.2279
8060.00,0.2279
8059.00,0.2278
8058.00,0.2278
8057.00,0.2277
8056.00,0.2275
8055.00,0.2273
8054.00,0.2273
8053.00,0.2273
8052.00,0.2273
8051.00,0.2273
8050.00,0.2273
8049.00,0.2272
8048.00,0.2272
8047.00,0.2272
8046.00,0.2272
8045.00,0.2272
8044.00,0.2271
8043.00,0.2271
8042.00,0.2271
8041.00,0.2271
8040.00,0.2272
8039.00,0.2272
8038.00,0.2271
8037.00,0.2271
8036.00,0.2270
8035.00,0.2270
8034.00,0.2269
8033.00,0.2269
8032.00,0.2268
8031.00,0.2268
8030.00,0.2268
8029.00,0.2267
8028.00,0.2267
8027.00,0.2267
8026.00,0.2267
8025.00,0.2266
8024.00,0.2265
8023.00,0.2264
8022.00,0.2264
8021.00,0.2263
8020.00,0.2263
8019.00,0.2263
8018.00,0.2263
8017.00,0.2263
8016.00,0.2263
8015.00,0.2263
8014.00,0.2263
8013.00,0.2263
8012.00,0.2264
8011.00,0.2264
8010.00,0.2263
8009.00,0.2263
8008.00,0.2263
8007.00,0.2262
8006.00,0.2262
8005.00,0.2261
8004.00,0.2260
8003.00,0.2259
8002.00,0.2258
8001.00,0.2258
8000.00,0.2257
7999.00,0.2257
7998.00,0.2256
7997.00,0.2256
7996.00,0.2257
7995.00,0.2257
7994.00,0.2257
7993.00,0.2257
7992.00,0.2256
7991.00,0.2257
7990.00,0.2257
7989.00,0.2256
7988.00,0.2256
7987.00,0.2255
7986.00,0.2254
7985.00,0.2254
7984.00,0.2253
7983.00,0.2252
7982.00,0.2252
7981.00,0.2251
7980.00,0.2252
7979.00,0.2252
7978.00,0.2252
7977.00,0.2252
7976.00,0.2252
7975.00,0.2252
7974.00,0.2252
7973.00,0.2252
7972.00,0.2252
7971.00,0.2251
7970.00,0.2251
7969.00,0.2250
7968.00,0.2250
7967.00,0.2249
7966.00,0.2249
7965.00,0.2248
7964.00,0.2248
7963.00,0.2248
7962.00,0.2248
7961.00,0.2248
7960.00,0.2248
7959.00,0.2248
7958.00,0.2248
7957.00,0.2248
7956.00,0.2248
7955.00,0.2247
7954.00,0.2247
7953.00,0.2246
7952.00,0.2246
7951.00,0.2246
7950.00,0.2246
7949.00,0.2246
7948.00,0.2246
7947.00,0.2245
7946.00,0.2245
7945.00,0.2246
7944.00,0.2246
7943.00,0.2246
7942.00,0.2245
7941.00,0.2244
7940.00,0.2243
7939.00,0.2242
7938.00,0.2242
7937.00,0.2242
7936.00,0.2243
7935.00,0.2242
7934.00,0.2242
7933.00,0.2242
7932.00,0.2242
7931.00,0.2243
7930.00,0.2243
7929.00,0.2242
7928.00,0.2242
7927.00,0.2242
7926.00,0.2241
7925.00,0.2241
7924.00,0.2241
7923.00,0.2240
7922.00,0.2240
7921.00,0.2240
7920.00,0.2239
7919.00,0.2238
7918.00,0.2238
7917.00,0.2238
7916.00,0.2238
7915.00,0.2238
7914.00,0.2238
7913.00,0.2238
7912.00,0.2238
7911.00,0.2237
7910.00,0.2237
7909.00,0.2236
7908.00,0.2236
7907.00,0.2236
7906.00,0.2236
7905.00,0.2237
7904.00,0.2237
7903.00,0.2237
7902.00,0.2237
7901.00,0.2237
7900.00,0.2236
7899.00,0.2236
7898.00,0.2235
7897.00,0.2234
7896.00,0.2233
7895.00,0.2233
7894.00,0.2232
7893.00,0.2232
7892.00,0.2232
7891.00,0.2232
7890.00,0.2233
7889.00,0.2233
7888.00,0.2233
7887.00,0.2233
7886.00,0.2233
7885.00,0.2234
7884.00,0.2234
7883.00,0.2234
7882.00,0.2234
7881.00,0.2233
7880.00,0.2233
7879.00,0.2233
7878.00,0.2232
7877.00,0.2231
7876.00,0.2231
7875.00,0.2230
7874.00,0.2230
7873.00,0.2229
7872.00,0.2229
7871.00,0.2230
7870.00,0.2229
7869.00,0.2229
7868.00,0.2229
7867.00,0.2228
7866.00,0.2228
7865.00,0.2228
7864.00,0.2228
7863.00,0.2227
7862.00,0.2227
7861.00,0.2227
7860.00,0.2227
7859.00,0.2227
7858.00,0.2227
7857.00,0.2226
7856.00,0.2225
7855.00,0.2224
7854.00,0.2224
7853.00,0.2224
7852.00,0.2224
7851.00,0.2224
7850.00,0.2223
7849.00,0.2223
7848.00,0.2223
7847.00,0.2223
7846.00,0.2223
7845.00,0.2223
7844.00,0.2222
7843.00,0.2222
7842.00,0.2222
7841.00,0.2221
7840.00,0.2221
7839.00,0.2220
7838.00,0.2220
7837.00,0.2220
7836.00,0.2219
7835.00,0.2219
7834.00,0.2219
7833.00,0.2218
7832.00,0.2218
7831.00,0.2218
7830.00,0.2218
7829.00,0.2218
7828.00,0.2218
7827.00,0.2217
7826.00,0.2217
7825.00,0.2216
7824.00,0.2216
7823.00,0.2216
7822.00,0.2216
7821.00,0.2215
7820.00,0.2215
7819.00,0.2214
7818.00,0.2215
7817.00,0.2215
7816.00,0.2215
7815.00,0.2215
7814.00,0.2214
7813.00,0.2214
7812.00,0.2214
7811.00,0.2214
7810.00,0.2213
7809.00,0.2212
7808.00,0.2211
7807.00,0.2211
7806.00,0.2210
7805.00,0.2209
7804.00,0.2208
7803.00,0.2207
7802.00,0.2208
7801.00,0.2208
7800.00,0.2209
7799.00,0.2209
7798.00,0.2208
7797.00,0.2208
7796.00,0.2209
7795.00,0.2209
7794.00,0.2209
7793.00,0.2208
7792.00,0.2207
7791.00,0.2206
7790.00,0.2206
7789.00,0.2205
7788.00,0.2204
7787.00,0.2203
7786.00,0.2202
7785.00,0.2201
7784.00,0.2201
7783.00,0.2201
7782.00,0.2201
7781.00,0.2202
7780.00,0.2202
7779.00,0.2201
7778.00,0.2201
7777.00,0.2201
7776.00,0.2201
7775.00,0.2201
7774.00,0.2200
7773.00,0.2200
7772.00,0.2200
7771.00,0.2200
7770.00,0.2200
7769.00,0.2200
7768.00,0.2199
7767.00,0.2199
7766.00,0.2198
7765.00,0.2198
7764.00,0.2197
7763.00,0.2196
7762.00,0.2196
7761.00,0.2196
7760.00,0.2196
7759.00,0.2196
7758.00,0.2196
7757.00,0.2196
7756.00,0.2195
7755.00,0.2195
7754.00,0.2195
7753.00,0.2195
7752.00,0.2195
7751.00,0.2194
7750.00,0.2194
7749.00,0.2193
7748.00,0.2192
7747.00,0.2191
7746.00,0.2190
7745.00,0.2190
7744.00,0.2189
7743.00,0.2189
7742.00,0.2188
7741.00,0.2188
7740.00,0.2189
7739.00,0.2188
7738.00,0.2188
7737.00,0.2189
7736.00,0.2189
7735.00,0.2189
7734.00,0.2189
7733.00,0.2188
7732.00,0.2187
7731.00,0.2186
7730.00,0.2186
7729.00,0.2185
7728.00,0.2185
7727.00,0.2184
7726.00,0.2183
7725.00,0.2183
7724.00,0.2184
7723.00,0.2184
7722.00,0.2185
7721.00,0.2185
7720.00,0.2185
7719.00,0.2185
7718.00,0.2185
7717.00,0.2184
7716.00,0.2184
7715.00,0.2184
7714.00,0.2183
7713.00,0.2183
7712.00,0.2183
7711.00,0.2182
7710.00,0.2182
7709.00,0.2182
7708.00,0.2182
7707.00,0.2182
7706.00,0.2182
7705.00,0.2182
7704.00,0.2182
7703.00,0.2182
7702.00,0.2181
7701.00,0.2181
7700.00,0.2180
7699.00,0.2180
7698.00,0.2180
7697.00,0.2180
7696.00,0.2180
7695.00,0.2180
7694.00,0.2181
7693.00,0.2181
7692.00,0.2180
7691.00,0.2180
7690.00,0.2179
7689.00,0.2179
7688.00,0.2179
7687.00,0.2178
7686.00,0.2178
7685.00,0.2178
7684.00,0.2178
7683.00,0.2178
7682.00,0.2178
7681.00,0.2177
7680.00,0.2176
7679.00,0.2176
7678.00,0.2176
7677.00,0.2176
7676.00,0.2176
7675.00,0.2176
7674.00,0.2175
7673.00,0.2175
7672.00,0.2176
7671.00,0.2176
7670.00,0.2175
7669.00,0.2175
7668.00,0.2175
7667.00,0.2175
7666.00,0.2175
7665.00,0.2174
7664.00,0.2174
7663.00,0.2173
7662.00,0.2173
7661.00,0.2173
7660.00,0.2172
7659.00,0.2172
7658.00,0.2172
7657.00,0.2172
7656.00,0.2172
7655.00,0.2171
7654.00,0.2171
7653.00,0.2171
7652.00,0.2171
7651.00,0.2171
7650.00,0.2171
7649.00,0.2171
7648.00,0.2172
7647.00,0.2172
7646.00,0.2172
7645.00,0.2172
7644.00,0.2172
7643.00,0.2172
7642.00,0.2172
7641.00,0.2171
7640.00,0.2171
7639.00,0.2170
7638.00,0.2170
7637.00,0.2170
7636.00,0.2170
7635.00,0.2170
7634.00,0.2170
7633.00,0.2170
7632.00,0.2170
7631.00,0.2171
7630.00,0.2171
7629.00,0.2171
7628.00,0.2171
7627.00,0.2171
7626.00,0.2171
7625.00,0.2171
7624.00,0.2171
7623.00,0.2171
7622.00,0.2171
7621.00,0.2171
7620.00,0.2171
7619.00,0.2171
7618.00,0.2171
7617.00,0.2171
7616.00,0.2171
7615.00,0.2171
7614.00,0.2171
7613.00,0.2171
7612.00,0.2172
7611.00,0.2172
7610.00,0.2172
7609.00,0.2172
7608.00,0.2172
7607.00,0.2171
7606.00,0.2171
7605.00,0.2171
7604.00,0.2171
7603.00,0.2171
7602.00,0.2171
7601.00,0.2172
7600.00,0.2172
7599.00,0.2173
7598.00,0.2173
7597.00,0.2173
7596.00,0.2173
7595.00,0.2173
7594.00,0.2173
7593.00,0.2173
7592.00,0.2174
7591.00,0.2174
7590.00,0.2174
7589.00,0.2174
7588.00,0.2174
7587.00,0.2174
7586.00,0.2174
7585.00,0.2175
7584.00,0.2175
7583.00,0.2176
7582.00,0.2176
7581.00,0.2176
7580.00,0.2176
7579.00,0.2176
7578.00,0.2175
7577.00,0.2175
7576.00,0.2175
7575.00,0.2175
7574.00,0.2175
7573.00,0.2175
7572.00,0.2176
7571.00,0.2176
7570.00,0.2176
7569.00,0.2177
7568.00,0.2177
7567.00,0.2178
7566.00,0.2178
7565.00,0.2178
7564.00,0.2178
7563.00,0.2178
7562.00,0.2178
7561.00,0.2178
7560.00,0.2178
7559.00,0.2178
7558.00,0.2179
7557.00,0.2180
7556.00,0.2181
7555.00,0.2181
7554.00,0.2182
7553.00,0.2182
7552.00,0.2183
7551.00,0.2183
7550.00,0.2184
7549.00,0.2183
7548.00,0.2183
7547.00,0.2183
7546.00,0.2183
7545.00,0.2183
7544.00,0.2183
7543.00,0.2183
7542.00,0.2183
7541.00,0.2184
7540.00,0.2185
7539.00,0.2185
7538.00,0.2186
7537.00,0.2186
7536.00,0.2187
7535.00,0.2188
7534.00,0.2188
7533.00,0.2189
7532.00,0.2189
7531.00,0.2189
7530.00,0.2189
7529.00,0.2189
7528.00,0.2190
7527.00,0.2190
7526.00,0.2191
7525.00,0.2192
7524.00,0.2193
7523.00,0.2194
7522.00,0.2195
7521.00,0.2195
7520.00,0.2196
7519.00,0.2196
7518.00,0.2196
7517.00,0.2197
7516.00,0.2198
7515.00,0.2199
7514.00,0.2201
7513.00,0.2202
7512.00,0.2202
7511.00,0.2203
7510.00,0.2203
7509.00,0.2203
7508.00,0.2203
7507.00,0.2203
7506.00,0.2203
7505.00,0.2204
7504.00,0.2205
7503.00,0.2206
7502.00,0.2208
7501.00,0.2208
7500.00,0.2209
7499.00,0.2210
7498.00,0.2210
7497.00,0.2211
7496.00,0.2212
7495.00,0.2212
7494.00,0.2213
7493.00,0.2213
7492.00,0.2214
7491.00,0.2215
7490.00,0.2216
7489.00,0.2217
7488.00,0.2218
7487.00,0.2218
7486.00,0.2220
7485.00,0.2221
7484.00,0.2222
7483.00,0.2223
7482.00,0.2224
7481.00,0.2224
7480.00,0.2225
7479.00,0.2225
7478.00,0.2226
7477.00,0.2226
7476.00,0.2227
7475.00,0.2227
7474.00,0.2227
7473.00,0.2228
7472.00,0.2229
7471.00,0.2230
7470.00,0.2231
7469.00,0.2232
7468.00,0.2233
7467.00,0.2234
7466.00,0.2236
7465.00,0.2237
7464.00,0.2238
7463.00,0.2238
7462.00,0.2239
7461.00,0.2239
7460.00,0.2240
7459.00,0.2240
7458.00,0.2241
7457.00,0.2242
7456.00,0.2244
7455.00,0.2245
7454.00,0.2246
7453.00,0.2247
7452.00,0.2249
7451.00,0.2250
7450.00,0.2251
7449.00,0.2251
7448.00,0.2251
7447.00,0.2252
7446.00,0.2253
7445.00,0.2253
7444.00,0.2254
7443.00,0.2255
7442.00,0.2257
7441.00,0.2258
7440.00,0.2259
7439.00,0.2260
7438.00,0.2262
7437.00,0.2263
7436.00,0.2265
7435.00,0.2265
7434.00,0.2266
7433.00,0.2267
7432.00,0.2269
7431.00,0.2270
7430.00,0.2271
7429.00,0.2271
7428.00,0.2272
7427.00,0.2273
7426.00,0.2275
7425.00,0.2276
7424.00,0.2278
7423.00,0.2280
7422.00,0.2281
7421.00,0.2283
7420.00,0.2284
7419.00,0.2285
7418.00,0.2286
7417.00,0.2287
7416.00,0.2287
7415.00,0.2287
7414.00,0.2288
7413.00,0.2289
7412.00,0.2290
7411.00,0.2292
7410.00,0.2294
7409.00,0.2296
7408.00,0.2298
7407.00,0.2299
7406.00,0.2300
7405.00,0.2301
7404.00,0.2301
7403.00,0.2302
7402.00,0.2303
7401.00,0.2304
7400.00,0.2305
7399.00,0.2307
7398.00,0.2309
7397.00,0.2311
7396.00,0.2313
7395.00,0.2314
7394.00,0.2316
7393.00,0.2317
7392.00,0.2319
7391.00,0.2319
7390.00,0.2320
7389.00,0.2322
7388.00,0.2324
7387.00,0.2326
7386.00,0.2329
7385.00,0.2332
7384.00,0.2333
7383.00,0.2335
7382.00,0.2337
7381.00,0.2340
7380.00,0.2342
7379.00,0.2343
7378.00,0.2342
7377.00,0.2339
7376.00,0.2339
7375.00,0.2341
7374.00,0.2344
7373.00,0.2346
7372.00,0.2346
7371.00,0.2346
7370.00,0.2347
7369.00,0.2350
7368.00,0.2352
7367.00,0.2353
7366.00,0.2353
7365.00,0.2353
7364.00,0.2353
7363.00,0.2354
7362.00,0.2357
7361.00,0.2360
7360.00,0.2364
7359.00,0.2366
7358.00,0.2366
7357.00,0.2365
7356.00,0.2365
7355.00,0.2366
7354.00,0.2368
7353.00,0.2370
7352.00,0.2371
7351.00,0.2373
7350.00,0.2375
7349.00,0.2380
7348.00,0.2385
7347.00,0.2390
7346.00,0.2393
7345.00,0.2396
7344.00,0.2397
7343.00,0.2396
7342.00,0.2393
7341.00,0.2390
7340.00,0.2386
7339.00,0.2383
7338.00,0.2379
7337.00,0.2377
7336.00,0.2376
7335.00,0.2379
7334.00,0.2384
7333.00,0.2391
7332.00,0.2397
7331.00,0.2400
7330.00,0.2401
7329.00,0.2402
7328.00,0.2402
7327.00,0.2402
7326.00,0.2399
7325.00,0.2394
7324.00,0.2390
7323.00,0.2388
7322.00,0.2389
7321.00,0.2391
7320.00,0.2392
7319.00,0.2393
7318.00,0.2396
7317.00,0.2400
7316.00,0.2404
7315.00,0.2408
7314.00,0.2410
7313.00,0.2411
7312.00,0.2412
7311.00,0.2414
7310.00,0.2413
7309.00,0.2410
7308.00,0.2406
7307.00,0.2404
7306.00,0.2404
7305.00,0.2405
7304.00,0.2405
7303.00,0.2405
7302.00,0.2405
7301.00,0.2407
7300.00,0.2410
7299.00,0.2414
7298.00,0.2417
7297.00,0.2416
7296.00,0.2414
7295.00,0.2413
7294.00,0.2414
7293.00,0.2416
7292.00,0.2416
7291.00,0.2414
7290.00,0.2412
7289.00,0.2411
7288.00,0.2411
7287.00,0.2412
7286.00,0.2413
7285.00,0.2412
7284.00,0.2412
7283.00,0.2411
7282.00,0.2412
7281.00,0.2413
7280.00,0.2414
7279.00,0.2414
7278.00,0.2415
7277.00,0.2416
7276.00,0.2416
7275.00,0.2417
7274.00,0.2417
7273.00,0.2417
7272.00,0.2417
7271.00,0.2417
7270.00,0.2416
7269.00,0.2416
7268.00,0.2417
7267.00,0.2419
7266.00,0.2421
7265.00,0.2421
7264.00,0.2421
7263.00,0.2421
7262.00,0.2421
7261.00,0.2422
7260.00,0.2422
7259.00,0.2423
7258.00,0.2425
7257.00,0.2428
7256.00,0.2429
7255.00,0.2429
7254.00,0.2429
7253.00,0.2429
7252.00,0.2429
7251.00,0.2429
7250.00,0.2430
7249.00,0.2434
7248.00,0.2441
7247.00,0.2449
7246.00,0.2454
7245.00,0.2456
7244.00,0.2454
7243.00,0.2451
7242.00,0.2448
7241.00,0.2444
7240.00,0.2442
7239.00,0.2442
7238.00,0.2447
7237.00,0.2456
7236.00,0.2465
7235.00,0.2470
7234.00,0.2470
7233.00,0.2468
7232.00,0.2466
7231.00,0.2464
7230.00,0.2459
7229.00,0.2454
7228.00,0.2450
7227.00,0.2450
7226.00,0.2454
7225.00,0.2459
7224.00,0.2462
7223.00,0.2463
7222.00,0.2463
7221.00,0.2464
7220.00,0.2466
7219.00,0.2468
7218.00,0.2468
7217.00,0.2466
7216.00,0.2464
7215.00,0.2463
7214.00,0.2464
7213.00,0.2465
7212.00,0.2467
7211.00,0.2470
7210.00,0.2474
7209.00,0.2480
7208.00,0.2484
7207.00,0.2488
7206.00,0.2489
7205.00,0.2490
7204.00,0.2490
7203.00,0.2488
7202.00,0.2486
7201.00,0.2484
7200.00,0.2485
7199.00,0.2486
7198.00,0.2489
7197.00,0.2492
7196.00,0.2494
7195.00,0.2496
7194.00,0.2498
7193.00,0.2499
7192.00,0.2500
7191.00,0.2500
7190.00,0.2502
7189.00,0.2505
7188.00,0.2510
7187.00,0.2516
7186.00,0.2521
7185.00,0.2526
7184.00,0.2528
7183.00,0.2528
7182.00,0.2529
7181.00,0.2528
7180.00,0.2528
7179.00,0.2526
7178.00,0.2525
7177.00,0.2525
7176.00,0.2528
7175.00,0.2534
7174.00,0.2540
7173.00,0.2546
7172.00,0.2551
7171.00,0.2554
7170.00,0.2557
7169.00,0.2560
7168.00,0.2562
7167.00,0.2564
7166.00,0.2567
7165.00,0.2569
7164.00,0.2570
7163.00,0.2570
7162.00,0.2571
7161.00,0.2572
7160.00,0.2573
7159.00,0.2573
7158.00,0.2571
7157.00,0.2571
7156.00,0.2573
7155.00,0.2576
7154.00,0.2579
7153.00,0.2582
7152.00,0.2586
7151.00,0.2590
7150.00,0.2595
7149.00,0.2600
7148.00,0.2605
7147.00,0.2609
7146.00,0.2614
7145.00,0.2619
7144.00,0.2624
7143.00,0.2628
7142.00,0.2629
7141.00,0.2630
7140.00,0.2632
7139.00,0.2634
7138.00,0.2636
7137.00,0.2636
7136.00,0.2636
7135.00,0.2636
7134.00,0.2637
7133.00,0.2640
7132.00,0.2642
7131.00,0.2645
7130.00,0.2647
7129.00,0.2650
7128.00,0.2654
7127.00,0.2658
7126.00,0.2662
7125.00,0.2667
7124.00,0.2672
7123.00,0.2679
7122.00,0.2686
7121.00,0.2693
7120.00,0.2696
7119.00,0.2698
7118.00,0.2698
7117.00,0.2699
7116.00,0.2700
7115.00,0.2700
7114.00,0.2700
7113.00,0.2703
7112.00,0.2708
7111.00,0.2716
7110.00,0.2723
7109.00,0.2728
7108.00,0.2732
7107.00,0.2733
7106.00,0.2735
7105.00,0.2737
7104.00,0.2739
7103.00,0.2741
7102.00,0.2745
7101.00,0.2750
7100.00,0.2758
7099.00,0.2766
7098.00,0.2772
7097.00,0.2775
7096.00,0.2777
7095.00,0.2779
7094.00,0.2781
7093.00,0.2783
7092.00,0.2784
7091.00,0.2786
7090.00,0.2790
7089.00,0.2795
7088.00,0.2799
7087.00,0.2804
7086.00,0.2809
7085.00,0.2814
7084.00,0.2818
7083.00,0.2822
7082.00,0.2826
7081.00,0.2830
7080.00,0.2835
7079.00,0.2839
7078.00,0.2843
7077.00,0.2848
7076.00,0.2855
7075.00,0.2862
7074.00,0.2869
7073.00,0.2874
7072.00,0.2879
7071.00,0.2884
7070.00,0.2887
7069.00,0.2890
7068.00,0.2892
7067.00,0.2894
7066.00,0.2897
7065.00,0.2901
7064.00,0.2905
7063.00,0.2909
7062.00,0.2914
7061.00,0.2919
7060.00,0.2924
7059.00,0.2929
7058.00,0.2934
7057.00,0.2939
7056.00,0.2944
7055.00,0.2949
7054.00,0.2954
7053.00,0.2959
7052.00,0.2965
7051.00,0.2970
7050.00,0.2975
7049.00,0.2979
7048.00,0.2984
7047.00,0.2989
7046.00,0.2994
7045.00,0.2998
7044.00,0.3002
7043.00,0.3007
7042.00,0.3011
7041.00,0.3016
7040.00,0.3021
7039.00,0.3025
7038.00,0.3030
7037.00,0.3034
7036.00,0.3039
7035.00,0.3044
7034.00,0.3049
7033.00,0.3054
7032.00,0.3059
7031.00,0.3064
7030.00,0.3069
7029.00,0.3075
7028.00,0.3081
7027.00,0.3086
7026.00,0.3092
7025.00,0.3096
7024.00,0.3100
7023.00,0.3104
7022.00,0.3108
7021.00,0.3112
7020.00,0.3116
7019.00,0.3120
7018.00,0.3125
7017.00,0.3130
7016.00,0.3135
7015.00,0.3140
7014.00,0.3144
7013.00,0.3148
7012.00,0.3152
7011.00,0.3156
7010.00,0.3161
7009.00,0.3166
7008.00,0.3171
7007.00,0.3176
7006.00,0.3181
7005.00,0.3187
7004.00,0.3191
7003.00,0.3196
7002.00,0.3200
7001.00,0.3204
7000.00,0.3208
6999.00,0.3211
6998.00,0.3215
6997.00,0.3218
6996.00,0.3222
6995.00,0.3225
6994.00,0.3229
6993.00,0.3234
6992.00,0.3239
6991.00,0.3244
6990.00,0.3248
6989.00,0.3253
6988.00,0.3257
6987.00,0.3261
6986.00,0.3266
6985.00,0.3270
6984.00,0.3274
6983.00,0.3277
6982.00,0.3280
6981.00,0.3283
6980.00,0.3286
6979.00,0.3289
6978.00,0.3292
6977.00,0.3295
6976.00,0.3298
6975.00,0.3302
6974.00,0.3306
6973.00,0.3310
6972.00,0.3314
6971.00,0.3317
6970.00,0.3320
6969.00,0.3323
6968.00,0.3326
6967.00,0.3329
6966.00,0.3332
6965.00,0.3335
6964.00,0.3338
6963.00,0.3341
6962.00,0.3345
6961.00,0.3348
6960.00,0.3352
6959.00,0.3355
6958.00,0.3358
6957.00,0.3361
6956.00,0.3363
6955.00,0.3366
6954.00,0.3368
6953.00,0.3371
6952.00,0.3373
6951.00,0.3376
6950.00,0.3379
6949.00,0.3382
6948.00,0.3384
6947.00,0.3386
6946.00,0.3388
6945.00,0.3391
6944.00,0.3393
6943.00,0.3396
6942.00,0.3399
6941.00,0.3403
6940.00,0.3406
6939.00,0.3408
6938.00,0.3411
6937.00,0.3413
6936.00,0.3415
6935.00,0.3418
6934.00,0.3420
6933.00,0.3422
6932.00,0.3424
6931.00,0.3426
6930.00,0.3427
6929.00,0.3429
6928.00,0.3430
6927.00,0.3432
6926.00,0.3434
6925.00,0.3435
6924.00,0.3438
6923.00,0.3441
6922.00,0.3444
6921.00,0.3447
6920.00,0.3449
6919.00,0.3450
6918.00,0.3452
6917.00,0.3453
6916.00,0.3454
6915.00,0.3455
6914.00,0.3456
6913.00,0.3457
6912.00,0.3458
6911.00,0.3460
6910.00,0.3461
6909.00,0.3463
6908.00,0.3464
6907.00,0.3465
6906.00,0.3466
6905.00,0.3467
6904.00,0.3468
6903.00,0.3469
6902.00,0.3471
6901.00,0.3472
6900.00,0.3474
6899.00,0.3475
6898.00,0.3477
6897.00,0.3479
6896.00,0.3481
6895.00,0.3482
6894.00,0.3483
6893.00,0.3484
6892.00,0.3485
6891.00,0.3486
6890.00,0.3487
6889.00,0.3488
6888.00,0.3490
6887.00,0.3491
6886.00,0.3492
6885.00,0.3493
6884.00,0.3493
6883.00,0.3494
6882.00,0.3494
6881.00,0.3495
6880.00,0.3495
6879.00,0.3495
6878.00,0.3496
6877.00,0.3497
6876.00,0.3498
6875.00,0.3500
6874.00,0.3501
6873.00,0.3502
6872.00,0.3503
6871.00,0.3504
6870.00,0.3505
6869.00,0.3506
6868.00,0.3506
6867.00,0.3507
6866.00,0.3508
6865.00,0.3509
6864.00,0.3510
6863.00,0.3511
6862.00,0.3513
6861.00,0.3514
6860.00,0.3515
6859.00,0.3515
6858.00,0.3515
6857.00,0.3515
6856.00,0.3516
6855.00,0.3516
6854.00,0.3517
6853.00,0.3518
6852.00,0.3518
6851.00,0.3519
6850.00,0.3520
6849.00,0.3521
6848.00,0.3522
6847.00,0.3522
6846.00,0.3523
6845.00,0.3524
6844.00,0.3524
6843.00,0.3524
6842.00,0.3525
6841.00,0.3525
6840.00,0.3525
6839.00,0.3525
6838.00,0.3526
6837.00,0.3527
6836.00,0.3528
6835.00,0.3528
6834.00,0.3529
6833.00,0.3530
6832.00,0.3530
6831.00,0.3529
6830.00,0.3530
6829.00,0.3530
6828.00,0.3530
6827.00,0.3531
6826.00,0.3532
6825.00,0.3532
6824.00,0.3533
6823.00,0.3533
6822.00,0.3534
6821.00,0.3534
6820.00,0.3535
6819.00,0.3535
6818.00,0.3535
6817.00,0.3535
6816.00,0.3534
6815.00,0.3534
6814.00,0.3534
6813.00,0.3535
6812.00,0.3535
6811.00,0.3535
6810.00,0.3536
6809.00,0.3537
6808.00,0.3537
6807.00,0.3538
6806.00,0.3538
6805.00,0.3538
6804.00,0.3538
6803.00,0.3538
6802.00,0.3539
6801.00,0.3538
6800.00,0.3538
6799.00,0.3538
6798.00,0.3538
6797.00,0.3539
6796.00,0.3539
6795.00,0.3539
6794.00,0.3539
6793.00,0.3539
6792.00,0.3538
6791.00,0.3538
6790.00,0.3538
6789.00,0.3538
6788.00,0.3537
6787.00,0.3536
6786.00,0.3536
6785.00,0.3536
6784.00,0.3536
6783.00,0.3536
6782.00,0.3536
6781.00,0.3537
6780.00,0.3537
6779.00,0.3538
6778.00,0.3538
6777.00,0.3537
6776.00,0.3537
6775.00,0.3536
6774.00,0.3536
6773.00,0.3536
6772.00,0.3536
6771.00,0.3536
6770.00,0.3536
6769.00,0.3536
6768.00,0.3535
6767.00,0.3535
6766.00,0.3534
6765.00,0.3534
6764.00,0.3533
6763.00,0.3533
6762.00,0.3532
6761.00,0.3531
6760.00,0.3531
6759.00,0.3531
6758.00,0.3530
6757.00,0.3529
6756.00,0.3528
6755.00,0.3527
6754.00,0.3527
6753.00,0.3527
6752.00,0.3526
6751.00,0.3526
6750.00,0.3526
6749.00,0.3526
6748.00,0.3526
6747.00,0.3526
6746.00,0.3525
6745.00,0.3524
6744.00,0.3524
6743.00,0.3523
6742.00,0.3523
6741.00,0.3522
6740.00,0.3522
6739.00,0.3521
6738.00,0.3521
6737.00,0.3521
6736.00,0.3521
6735.00,0.3521
6734.00,0.3520
6733.00,0.3519
6732.00,0.3518
6731.00,0.3518
6730.00,0.3517
6729.00,0.3517
6728.00,0.3516
6727.00,0.3516
6726.00,0.3515
6725.00,0.3515
6724.00,0.3515
6723.00,0.3514
6722.00,0.3513
6721.00,0.3513
6720.00,0.3513
6719.00,0.3513
6718.00,0.3513
6717.00,0.3512
6716.00,0.3511
6715.00,0.3510
6714.00,0.3509
6713.00,0.3508
6712.00,0.3507
6711.00,0.3505
6710.00,0.3504
6709.00,0.3504
6708.00,0.3504
6707.00,0.3504
6706.00,0.3504
6705.00,0.3504
6704.00,0.3503
6703.00,0.3503
6702.00,0.3502
6701.00,0.3501
6700.00,0.3500
6699.00,0.3499
6698.00,0.3497
6697.00,0.3496
6696.00,0.3495
6695.00,0.3494
6694.00,0.3494
6693.00,0.3493
6692.00,0.3493
6691.00,0.3492
6690.00,0.3491
6689.00,0.3491
6688.00,0.3491
6687.00,0.3491
6686.00,0.3490
6685.00,0.3490
6684.00,0.3489
6683.00,0.3488
6682.00,0.3487
6681.00,0.3487
6680.00,0.3486
6679.00,0.3485
6678.00,0.3484
6677.00,0.3483
6676.00,0.3482
6675.00,0.3481
6674.00,0.3480
6673.00,0.3479
6672.00,0.3479
6671.00,0.3478
6670.00,0.3477
6669.00,0.3476
6668.00,0.3476
6667.00,0.3475
6666.00,0.3474
6665.00,0.3473
6664.00,0.3472
6663.00,0.3471
6662.00,0.3470
6661.00,0.3470
6660.00,0.3469
6659.00,0.3469
6658.00,0.3468
6657.00,0.3468
6656.00,0.3467
6655.00,0.3466
6654.00,0.3465
6653.00,0.3464
6652.00,0.3463
6651.00,0.3462
6650.00,0.3461
6649.00,0.3460
6648.00,0.3459
6647.00,0.3458
6646.00,0.3458
6645.00,0.3457
6644.00,0.3457
6643.00,0.3456
6642.00,0.3456
6641.00,0.3456
6640.00,0.3455
6639.00,0.3454
6638.00,0.3452
6637.00,0.3451
6636.00,0.3451
6635.00,0.3450
6634.00,0.3449
6633.00,0.3448
6632.00,0.3447
6631.00,0.3446
6630.00,0.3445
6629.00,0.3444
6628.00,0.3443
6627.00,0.3443
6626.00,0.3442
6625.00,0.3441
6624.00,0.3441
6623.00,0.3440
6622.00,0.3440
6621.00,0.3439
6620.00,0.3438
6619.00,0.3437
6618.00,0.3436
6617.00,0.3435
6616.00,0.3435
6615.00,0.3434
6614.00,0.3433
6613.00,0.3432
6612.00,0.3431
6611.00,0.3430
6610.00,0.3429
6609.00,0.3428
6608.00,0.3427
6607.00,0.3426
6606.00,0.3425
6605.00,0.3424
6604.00,0.3424
6603.00,0.3423
6602.00,0.3423
6601.00,0.3422
6600.00,0.3421
6599.00,0.3421
6598.00,0.3420
6597.00,0.3419
6596.00,0.3418
6595.00,0.3417
6594.00,0.3416
6593.00,0.3415
6592.00,0.3415
6591.00,0.3414
6590.00,0.3413
6589.00,0.3412
6588.00,0.3410
6587.00,0.3409
6586.00,0.3408
6585.00,0.3408
6584.00,0.3407
6583.00,0.3407
6582.00,0.3407
6581.00,0.3406
6580.00,0.3405
6579.00,0.3405
6578.00,0.3404
6577.00,0.3403
6576.00,0.3401
6575.00,0.3400
6574.00,0.3400
6573.00,0.3399
6572.00,0.3398
6571.00,0.3397
6570.00,0.3396
6569.00,0.3395
6568.00,0.3395
6567.00,0.3394
6566.00,0.3393
6565.00,0.3392
6564.00,0.3392
6563.00,0.3391
6562.00,0.3390
6561.00,0.3390
6560.00,0.3389
6559.00,0.3389
6558.00,0.3389
6557.00,0.3389
6556.00,0.3388
6555.00,0.3388
6554.00,0.3388
6553.00,0.3387
6552.00,0.3386
6551.00,0.3385
6550.00,0.3384
6549.00,0.3384
6548.00,0.3383
6547.00,0.3382
6546.00,0.3382
6545.00,0.3381
6544.00,0.3381
6543.00,0.3380
6542.00,0.3379
6541.00,0.3379
6540.00,0.3378
6539.00,0.3378
6538.00,0.3377
6537.00,0.3377
6536.00,0.3377
6535.00,0.3376
6534.00,0.3376
6533.00,0.3375
6532.00,0.3375
6531.00,0.3375
6530.00,0.3375
6529.00,0.3375
6528.00,0.3374
6527.00,0.3374
6526.00,0.3373
6525.00,0.3372
6524.00,0.3372
6523.00,0.3371
6522.00,0.3371
6521.00,0.3371
6520.00,0.3371
6519.00,0.3371
6518.00,0.3371
6517.00,0.3370
6516.00,0.3369
6515.00,0.3369
6514.00,0.3369
6513.00,0.3368
6512.00,0.3369
6511.00,0.3369
6510.00,0.3369
6509.00,0.3369
6508.00,0.3369
6507.00,0.3368
6506.00,0.3368
6505.00,0.3368
6504.00,0.3367
6503.00,0.3367
6502.00,0.3367
6501.00,0.3367
6500.00,0.3366
6499.00,0.3366
6498.00,0.3366
6497.00,0.3366
6496.00,0.3366
6495.00,0.3365
6494.00,0.3365
6493.00,0.3365
6492.00,0.3365
6491.00,0.3364
6490.00,0.3364
6489.00,0.3363
6488.00,0.3363
6487.00,0.3363
6486.00,0.3363
6485.00,0.3363
6484.00,0.3363
6483.00,0.3363
6482.00,0.3363
6481.00,0.3363
6480.00,0.3363
6479.00,0.3363
6478.00,0.3363
6477.00,0.3363
6476.00,0.3363
6475.00,0.3363
6474.00,0.3363
6473.00,0.3363
6472.00,0.3363
6471.00,0.3363
6470.00,0.3364
6469.00,0.3364
6468.00,0.3363
6467.00,0.3363
6466.00,0.3363
6465.00,0.3362
6464.00,0.3362
6463.00,0.3362
6462.00,0.3363
6461.00,0.3363
6460.00,0.3364
6459.00,0.3364
6458.00,0.3364
6457.00,0.3365
6456.00,0.3365
6455.00,0.3365
6454.00,0.3365
6453.00,0.3364
6452.00,0.3364
6451.00,0.3364
6450.00,0.3364
6449.00,0.3364
6448.00,0.3363
6447.00,0.3363
6446.00,0.3363
6445.00,0.3363
6444.00,0.3363
6443.00,0.3364
6442.00,0.3364
6441.00,0.3364
6440.00,0.3364
6439.00,0.3364
6438.00,0.3364
6437.00,0.3364
6436.00,0.3365
6435.00,0.3365
6434.00,0.3365
6433.00,0.3365
6432.00,0.3366
6431.00,0.3366
6430.00,0.3366
6429.00,0.3366
6428.00,0.3366
6427.00,0.3366
6426.00,0.3366
6425.00,0.3366
6424.00,0.3366
6423.00,0.3366
6422.00,0.3366
6421.00,0.3366
6420.00,0.3367
6419.00,0.3367
6418.00,0.3368
6417.00,0.3368
6416.00,0.3368
6415.00,0.3367
6414.00,0.3367
6413.00,0.3367
6412.00,0.3367
6411.00,0.3368
6410.00,0.3368
6409.00,0.3368
6408.00,0.3368
6407.00,0.3368
6406.00,0.3368
6405.00,0.3368
6404.00,0.3368
6403.00,0.3368
6402.00,0.3369
6401.00,0.3369
6400.00,0.3370
6399.00,0.3370
6398.00,0.3370
6397.00,0.3370
6396.00,0.3370
6395.00,0.3370
6394.00,0.3370
6393.00,0.3369
6392.00,0.3369
6391.00,0.3369
6390.00,0.3370
6389.00,0.3370
6388.00,0.3370
6387.00,0.3370
6386.00,0.3370
6385.00,0.3370
6384.00,0.3370
6383.00,0.3369
6382.00,0.3369
6381.00,0.3369
6380.00,0.3369
6379.00,0.3369
6378.00,0.3369
6377.00,0.3369
6376.00,0.3369
6375.00,0.3369
6374.00,0.3369
6373.00,0.3369
6372.00,0.3369
6371.00,0.3369
6370.00,0.3369
6369.00,0.3369
6368.00,0.3369
6367.00,0.3369
6366.00,0.3369
6365.00,0.3369
6364.00,0.3369
6363.00,0.3369
6362.00,0.3370
6361.00,0.3370
6360.00,0.3371
6359.00,0.3371
6358.00,0.3371
6357.00,0.3371
6356.00,0.3370
6355.00,0.3370
6354.00,0.3369
6353.00,0.3368
6352.00,0.3368
6351.00,0.3367
6350.00,0.3367
6349.00,0.3367
6348.00,0.3367
6347.00,0.3368
6346.00,0.3368
6345.00,0.3367
6344.00,0.3367
6343.00,0.3367
6342.00,0.3367
6341.00,0.3367
6340.00,0.3367
6339.00,0.3367
6338.00,0.3367
6337.00,0.3367
6336.00,0.3366
6335.00,0.3366
6334.00,0.3365
6333.00,0.3365
6332.00,0.3365
6331.00,0.3365
6330.00,0.3365
6329.00,0.3365
6328.00,0.3364
6327.00,0.3364
6326.00,0.3364
6325.00,0.3364
6324.00,0.3363
6323.00,0.3362
6322.00,0.3362
6321.00,0.3361
6320.00,0.3360
6319.00,0.3360
6318.00,0.3359
6317.00,0.3359
6316.00,0.3359
6315.00,0.3359
6314.00,0.3359
6313.00,0.3358
6312.00,0.3358
6311.00,0.3358
6310.00,0.3357
6309.00,0.3357
6308.00,0.3356
6307.00,0.3356
6306.00,0.3355
6305.00,0.3354
6304.00,0.3354
6303.00,0.3353
6302.00,0.3353
6301.00,0.3352
6300.00,0.3351
6299.00,0.3351
6298.00,0.3350
6297.00,0.3349
6296.00,0.3349
6295.00,0.3348
6294.00,0.3348
6293.00,0.3348
6292.00,0.3347
6291.00,0.3347
6290.00,0.3346
6289.00,0.3345
6288.00,0.3344
6287.00,0.3344
6286.00,0.3343
6285.00,0.3342
6284.00,0.3342
6283.00,0.3341
6282.00,0.3340
6281.00,0.3339
6280.00,0.3339
6279.00,0.3338
6278.00,0.3337
6277.00,0.3337
6276.00,0.3336
6275.00,0.3336
6274.00,0.3335
6273.00,0.3335
6272.00,0.3334
6271.00,0.3333
6270.00,0.3332
6269.00,0.3331
6268.00,0.3330
6267.00,0.3329
6266.00,0.3328
6265.00,0.3327
6264.00,0.3327
6263.00,0.3326
6262.00,0.3325
6261.00,0.3324
6260.00,0.3323
6259.00,0.3322
6258.00,0.3321
6257.00,0.3320
6256.00,0.3319
6255.00,0.3319
6254.00,0.3318
6253.00,0.3318
6252.00,0.3317
6251.00,0.3316
6250.00,0.3316
6249.00,0.3315
6248.00,0.3315
6247.00,0.3314
6246.00,0.3313
6245.00,0.3312
6244.00,0.3311
6243.00,0.3310
6242.00,0.3308
6241.00,0.3307
6240.00,0.3307
6239.00,0.3306
6238.00,0.3305
6237.00,0.3305
6236.00,0.3304
6235.00,0.3303
6234.00,0.3302
6233.00,0.3301
6232.00,0.3299
6231.00,0.3298
6230.00,0.3297
6229.00,0.3296
6228.00,0.3295
6227.00,0.3294
6226.00,0.3293
6225.00,0.3292
6224.00,0.3291
6223.00,0.3289
6222.00,0.3288
6221.00,0.3287
6220.00,0.3287
6219.00,0.3286
6218.00,0.3285
6217.00,0.3285
6216.00,0.3284
6215.00,0.3283
6214.00,0.3281
6213.00,0.3280
6212.00,0.3279
6211.00,0.3278
6210.00,0.3277
6209.00,0.3276
6208.00,0.3275
6207.00,0.3275
6206.00,0.3274
6205.00,0.3273
6204.00,0.3272
6203.00,0.3271
6202.00,0.3270
6201.00,0.3268
6200.00,0.3267
6199.00,0.3266
6198.00,0.3265
6197.00,0.3264
6196.00,0.3263
6195.00,0.3262
6194.00,0.3261
6193.00,0.3260
6192.00,0.3259
6191.00,0.3258
6190.00,0.3257
6189.00,0.3256
6188.00,0.3256
6187.00,0.3255
6186.00,0.3254
6185.00,0.3253
6184.00,0.3252
6183.00,0.3251
6182.00,0.3251
6181.00,0.3250
6180.00,0.3249
6179.00,0.3248
6178.00,0.3247
6177.00,0.3246
6176.00,0.3244
6175.00,0.3243
6174.00,0.3242
6173.00,0.3241
6172.00,0.3240
6171.00,0.3239
6170.00,0.3238
6169.00,0.3236
6168.00,0.3235
6167.00,0.3234
6166.00,0.3233
6165.00,0.3232
6164.00,0.3231
6163.00,0.3231
6162.00,0.3230
6161.00,0.3229
6160.00,0.3228
6159.00,0.3227
6158.00,0.3226
6157.00,0.3225
6156.00,0.3224
6155.00,0.3224
6154.00,0.3223
6153.00,0.3222
6152.00,0.3221
6151.00,0.3220
6150.00,0.3219
6149.00,0.3218
6148.00,0.3217
6147.00,0.3216
6146.00,0.3215
6145.00,0.3214
6144.00,0.3213
6143.00,0.3212
6142.00,0.3211
6141.00,0.3210
6140.00,0.3209
6139.00,0.3207
6138.00,0.3206
6137.00,0.3205
6136.00,0.3204
6135.00,0.3202
6134.00,0.3202
6133.00,0.3201
6132.00,0.3200
6131.00,0.3199
6130.00,0.3198
6129.00,0.3197
6128.00,0.3196
6127.00,0.3195
6126.00,0.3194
6125.00,0.3193
6124.00,0.3192
6123.00,0.3192
6122.00,0.3191
6121.00,0.3191
6120.00,0.3190
6119.00,0.3189
6118.00,0.3188
6117.00,0.3187
6116.00,0.3186
6115.00,0.3185
6114.00,0.3184
6113.00,0.3183
6112.00,0.3182
6111.00,0.3182
6110.00,0.3181
6109.00,0.3179
6108.00,0.3178
6107.00,0.3177
6106.00,0.3176
6105.00,0.3175
6104.00,0.3174
6103.00,0.3173
6102.00,0.3172
6101.00,0.3171
6100.00,0.3170
6099.00,0.3169
6098.00,0.3168
6097.00,0.3167
6096.00,0.3166
6095.00,0.3165
6094.00,0.3165
6093.00,0.3164
6092.00,0.3163
6091.00,0.3162
6090.00,0.3161
6089.00,0.3160
6088.00,0.3159
6087.00,0.3159
6086.00,0.3158
6085.00,0.3157
6084.00,0.3156
6083.00,0.3155
6082.00,0.3154
6081.00,0.3153
6080.00,0.3153
6079.00,0.3152
6078.00,0.3151
6077.00,0.3151
6076.00,0.3150
6075.00,0.3150
6074.00,0.3149
6073.00,0.3148
6072.00,0.3147
6071.00,0.3146
6070.00,0.3145
6069.00,0.3145
6068.00,0.3144
6067.00,0.3143
6066.00,0.3142
6065.00,0.3142
6064.00,0.3141
6063.00,0.3140
6062.00,0.3140
6061.00,0.3139
6060.00,0.3139
6059.00,0.3138
6058.00,0.3137
6057.00,0.3136
6056.00,0.3135
6055.00,0.3135
6054.00,0.3134
6053.00,0.3133
6052.00,0.3133
6051.00,0.3133
6050.00,0.3132
6049.00,0.3132
6048.00,0.3131
6047.00,0.3130
6046.00,0.3130
6045.00,0.3129
6044.00,0.3128
6043.00,0.3127
6042.00,0.3126
6041.00,0.3125
6040.00,0.3124
6039.00,0.3124
6038.00,0.3123
6037.00,0.3123
6036.00,0.3123
6035.00,0.3122
6034.00,0.3122
6033.00,0.3122
6032.00,0.3121
6031.00,0.3121
6030.00,0.3120
6029.00,0.3120
6028.00,0.3119
6027.00,0.3118
6026.00,0.3118
6025.00,0.3117
6024.00,0.3117
6023.00,0.3117
6022.00,0.3116
6021.00,0.3116
6020.00,0.3116
6019.00,0.3116
6018.00,0.3115
6017.00,0.3114
6016.00,0.3114
6015.00,0.3113
6014.00,0.3113
6013.00,0.3113
6012.00,0.3113
6011.00,0.3113
6010.00,0.3112
6009.00,0.3112
6008.00,0.3112
6007.00,0.3112
6006.00,0.3112
6005.00,0.3112
6004.00,0.3111
6003.00,0.3111
6002.00,0.3111
6001.00,0.3111
6000.00,0.3111
5999.00,0.3111
5998.00,0.3111
5997.00,0.3111
5996.00,0.3111
5995.00,0.3111
5994.00,0.3111
5993.00,0.3112
5992.00,0.3112
5991.00,0.3112
5990.00,0.3112
5989.00,0.3112
5988.00,0.3111
5987.00,0.3111
5986.00,0.3111
5985.00,0.3111
5984.00,0.3112
5983.00,0.3112
5982.00,0.3113
5981.00,0.3113
5980.00,0.3113
5979.00,0.3113
5978.00,0.3113
5977.00,0.3113
5976.00,0.3113
5975.00,0.3114
5974.00,0.3115
5973.00,0.3115
5972.00,0.3116
5971.00,0.3117
5970.00,0.3117
5969.00,0.3118
5968.00,0.3119
5967.00,0.3119
5966.00,0.3120
5965.00,0.3121
5964.00,0.3122
5963.00,0.3123
5962.00,0.3124
5961.00,0.3124
5960.00,0.3125
5959.00,0.3126
5958.00,0.3127
5957.00,0.3128
5956.00,0.3129
5955.00,0.3130
5954.00,0.3132
5953.00,0.3133
5952.00,0.3134
5951.00,0.3135
5950.00,0.3136
5949.00,0.3137
5948.00,0.3139
5947.00,0.3140
5946.00,0.3142
5945.00,0.3143
5944.00,0.3145
5943.00,0.3146
5942.00,0.3148
5941.00,0.3149
5940.00,0.3151
5939.00,0.3152
5938.00,0.3153
5937.00,0.3155
5936.00,0.3156
5935.00,0.3158
5934.00,0.3159
5933.00,0.3161
5932.00,0.3162
5931.00,0.3164
5930.00,0.3166
5929.00,0.3167
5928.00,0.3169
5927.00,0.3170
5926.00,0.3171
5925.00,0.3172
5924.00,0.3172
5923.00,0.3173
5922.00,0.3174
5921.00,0.3175
5920.00,0.3176
5919.00,0.3177
5918.00,0.3178
5917.00,0.3179
5916.00,0.3181
5915.00,0.3182
5914.00,0.3183
5913.00,0.3184
5912.00,0.3185
5911.00,0.3186
5910.00,0.3186
5909.00,0.3187
5908.00,0.3188
5907.00,0.3188
5906.00,0.3189
5905.00,0.3189
5904.00,0.3190
5903.00,0.3190
5902.00,0.3190
5901.00,0.3191
5900.00,0.3191
5899.00,0.3191
5898.00,0.3191
5897.00,0.3191
5896.00,0.3190
5895.00,0.3190
5894.00,0.3191
5893.00,0.3191
5892.00,0.3192
5891.00,0.3192
5890.00,0.3193
5889.00,0.3194
5888.00,0.3194
5887.00,0.3194
5886.00,0.3195
5885.00,0.3195
5884.00,0.3196
5883.00,0.3196
5882.00,0.3197
5881.00,0.3197
5880.00,0.3198
5879.00,0.3199
5878.00,0.3200
5877.00,0.3201
5876.00,0.3202
5875.00,0.3202
5874.00,0.3203
5873.00,0.3203
5872.00,0.3204
5871.00,0.3204
5870.00,0.3204
5869.00,0.3204
5868.00,0.3205
5867.00,0.3206
5866.00,0.3206
5865.00,0.3207
5864.00,0.3207
5863.00,0.3208
5862.00,0.3209
5861.00,0.3209
5860.00,0.3210
5859.00,0.3210
5858.00,0.3211
5857.00,0.3211
5856.00,0.3212
5855.00,0.3213
5854.00,0.3214
5853.00,0.3215
5852.00,0.3216
5851.00,0.3216
5850.00,0.3216
5849.00,0.3217
5848.00,0.3217
5847.00,0.3218
5846.00,0.3219
5845.00,0.3220
5844.00,0.3221
5843.00,0.3222
5842.00,0.3223
5841.00,0.3224
5840.00,0.3225
5839.00,0.3226
5838.00,0.3227
5837.00,0.3228
5836.00,0.3229
5835.00,0.3230
5834.00,0.3231
5833.00,0.3233
5832.00,0.3234
5831.00,0.3235
5830.00,0.3236
5829.00,0.3237
5828.00,0.3239
5827.00,0.3240
5826.00,0.3241
5825.00,0.3242
5824.00,0.3244
5823.00,0.3245
5822.00,0.3246
5821.00,0.3247
5820.00,0.3248
5819.00,0.3249
5818.00,0.3250
5817.00,0.3251
5816.00,0.3252
5815.00,0.3254
5814.00,0.3255
5813.00,0.3257
5812.00,0.3258
5811.00,0.3260
5810.00,0.3261
5809.00,0.3262
5808.00,0.3263
5807.00,0.3264
5806.00,0.3265
5805.00,0.3266
5804.00,0.3267
5803.00,0.3267
5802.00,0.3268
5801.00,0.3269
5800.00,0.3271
5799.00,0.3272
5798.00,0.3273
5797.00,0.3274
5796.00,0.3275
5795.00,0.3276
5794.00,0.3277
5793.00,0.3278
5792.00,0.3278
5791.00,0.3279
5790.00,0.3280
5789.00,0.3281
5788.00,0.3282
5787.00,0.3283
5786.00,0.3284
5785.00,0.3284
5784.00,0.3285
5783.00,0.3286
5782.00,0.3286
5781.00,0.3287
5780.00,0.3287
5779.00,0.3287
5778.00,0.3288
5777.00,0.3288
5776.00,0.3289
5775.00,0.3289
5774.00,0.3290
5773.00,0.3290
5772.00,0.3291
5771.00,0.3291
5770.00,0.3291
5769.00,0.3291
5768.00,0.3291
5767.00,0.3292
5766.00,0.3292
5765.00,0.3292
5764.00,0.3292
5763.00,0.3293
5762.00,0.3293
5761.00,0.3294
5760.00,0.3294
5759.00,0.3294
5758.00,0.3294
5757.00,0.3294
5756.00,0.3294
5755.00,0.3294
5754.00,0.3295
5753.00,0.3295
5752.00,0.3295
5751.00,0.3296
5750.00,0.3296
5749.00,0.3296
5748.00,0.3296
5747.00,0.3296
5746.00,0.3296
5745.00,0.3296
5744.00,0.3297
5743.00,0.3297
5742.00,0.3297
5741.00,0.3297
5740.00,0.3297
5739.00,0.3297
5738.00,0.3297
5737.00,0.3297
5736.00,0.3297
5735.00,0.3297
5734.00,0.3298
5733.00,0.3298
5732.00,0.3299
5731.00,0.3299
5730.00,0.3299
5729.00,0.3299
5728.00,0.3299
5727.00,0.3299
5726.00,0.3298
5725.00,0.3298
5724.00,0.3298
5723.00,0.3298
5722.00,0.3298
5721.00,0.3298
5720.00,0.3298
5719.00,0.3299
5718.00,0.3299
5717.00,0.3299
5716.00,0.3300
5715.00,0.3300
5714.00,0.3301
5713.00,0.3301
5712.00,0.3301
5711.00,0.3301
5710.00,0.3302
5709.00,0.3302
5708.00,0.3302
5707.00,0.3302
5706.00,0.3302
5705.00,0.3302
5704.00,0.3303
5703.00,0.3303
5702.00,0.3303
5701.00,0.3304
5700.00,0.3304
5699.00,0.3304
5698.00,0.3304
5697.00,0.3305
5696.00,0.3305
5695.00,0.3305
5694.00,0.3305
5693.00,0.3305
5692.00,0.3305
5691.00,0.3305
5690.00,0.3305
5689.00,0.3306
5688.00,0.3306
5687.00,0.3306
5686.00,0.3307
5685.00,0.3307
5684.00,0.3308
5683.00,0.3308
5682.00,0.3309
5681.00,0.3309
5680.00,0.3309
5679.00,0.3309
5678.00,0.3309
5677.00,0.3309
5676.00,0.3309
5675.00,0.3308
5674.00,0.3308
5673.00,0.3309
5672.00,0.3309
5671.00,0.3309
5670.00,0.3310
5669.00,0.3310
5668.00,0.3310
5667.00,0.3310
5666.00,0.3310
5665.00,0.3309
5664.00,0.3309
5663.00,0.3309
5662.00,0.3309
5661.00,0.3309
5660.00,0.3308
5659.00,0.3308
5658.00,0.3307
5657.00,0.3307
5656.00,0.3306
5655.00,0.3306
5654.00,0.3306
5653.00,0.3306
5652.00,0.3306
5651.00,0.3306
5650.00,0.3306
5649.00,0.3306
5648.00,0.3306
5647.00,0.3306
5646.00,0.3306
5645.00,0.3306
5644.00,0.3306
5643.00,0.3306
5642.00,0.3306
5641.00,0.3306
5640.00,0.3306
5639.00,0.3306
5638.00,0.3306
5637.00,0.3305
5636.00,0.3305
5635.00,0.3305
5634.00,0.3305
5633.00,0.3305
5632.00,0.3305
5631.00,0.3305
5630.00,0.3304
5629.00,0.3304
5628.00,0.3303
5627.00,0.3303
5626.00,0.3303
5625.00,0.3303
5624.00,0.3303
5623.00,0.3303
5622.00,0.3302
5621.00,0.3302
5620.00,0.3302
5619.00,0.3301
5618.00,0.3301
5617.00,0.3300
5616.00,0.3300
5615.00,0.3299
5614.00,0.3299
5613.00,0.3298
5612.00,0.3298
5611.00,0.3297
5610.00,0.3297
5609.00,0.3297
5608.00,0.3297
5607.00,0.3297
5606.00,0.3297
5605.00,0.3297
5604.00,0.3296
5603.00,0.3296
5602.00,0.3296
5601.00,0.3295
5600.00,0.3295
5599.00,0.3294
5598.00,0.3293
5597.00,0.3293
5596.00,0.3292
5595.00,0.3291
5594.00,0.3291
5593.00,0.3290
5592.00,0.3289
5591.00,0.3289
5590.00,0.3288
5589.00,0.3288
5588.00,0.3287
5587.00,0.3287
5586.00,0.3287
5585.00,0.3286
5584.00,0.3286
5583.00,0.3285
5582.00,0.3284
5581.00,0.3284
5580.00,0.3283
5579.00,0.3282
5578.00,0.3282
5577.00,0.3282
5576.00,0.3281
5575.00,0.3280
5574.00,0.3280
5573.00,0.3279
5572.00,0.3278
5571.00,0.3278
5570.00,0.3277
5569.00,0.3277
5568.00,0.3277
5567.00,0.3276
5566.00,0.3276
5565.00,0.3275
5564.00,0.3274
5563.00,0.3273
5562.00,0.3272
5561.00,0.3271
5560.00,0.3271
5559.00,0.3270
5558.00,0.3270
5557.00,0.3270
5556.00,0.3270
5555.00,0.3270
5554.00,0.3270
5553.00,0.3269
5552.00,0.3269
5551.00,0.3268
5550.00,0.3267
5549.00,0.3266
5548.00,0.3265
5547.00,0.3264
5546.00,0.3263
5545.00,0.3262
5544.00,0.3261
5543.00,0.3260
5542.00,0.3261
5541.00,0.3261
5540.00,0.3262
5539.00,0.3262
5538.00,0.3262
5537.00,0.3261
5536.00,0.3260
5535.00,0.3259
5534.00,0.3257
5533.00,0.3256
5532.00,0.3255
5531.00,0.3255
5530.00,0.3254
5529.00,0.3253
5528.00,0.3253
5527.00,0.3253
5526.00,0.3253
5525.00,0.3254
5524.00,0.3254
5523.00,0.3254
5522.00,0.3254
5521.00,0.3254
5520.00,0.3253
5519.00,0.3252
5518.00,0.3251
5517.00,0.3249
5516.00,0.3248
5515.00,0.3246
5514.00,0.3245
5513.00,0.3245
5512.00,0.3248
5511.00,0.3251
5510.00,0.3253
5509.00,0.3253
5508.00,0.3252
5507.00,0.3250
5506.00,0.3247
5505.00,0.3244
5504.00,0.3242
5503.00,0.3241
5502.00,0.3241
5501.00,0.3241
5500.00,0.3240
5499.00,0.3240
5498.00,0.3243
5497.00,0.3247
5496.00,0.3251
5495.00,0.3254
5494.00,0.3255
5493.00,0.3255
5492.00,0.3253
5491.00,0.3249
5490.00,0.3245
5489.00,0.3241
5488.00,0.3238
5487.00,0.3235
5486.00,0.3232
5485.00,0.3228
5484.00,0.3226
5483.00,0.3225
5482.00,0.3225
5481.00,0.3228
5480.00,0.3232
5479.00,0.3239
5478.00,0.3244
5477.00,0.3245
5476.00,0.3242
5475.00,0.3238
5474.00,0.3232
5473.00,0.3228
5472.00,0.3225
5471.00,0.3226
5470.00,0.3228
5469.00,0.3230
5468.00,0.3229
5467.00,0.3228
5466.00,0.3227
5465.00,0.3228
5464.00,0.3229
5463.00,0.3229
5462.00,0.3228
5461.00,0.3225
5460.00,0.3222
5459.00,0.3219
5458.00,0.3215
5457.00,0.3212
5456.00,0.3210
5455.00,0.3209
5454.00,0.3210
5453.00,0.3211
5452.00,0.3213
5451.00,0.3217
5450.00,0.3221
5449.00,0.3224
5448.00,0.3224
5447.00,0.3222
5446.00,0.3221
5445.00,0.3221
5444.00,0.3220
5443.00,0.3216
5442.00,0.3211
5441.00,0.3206
5440.00,0.3203
5439.00,0.3203
5438.00,0.3203
5437.00,0.3204
5436.00,0.3204
5435.00,0.3205
5434.00,0.3205
5433.00,0.3206
5432.00,0.3207
5431.00,0.3207
5430.00,0.3206
5429.00,0.3202
5428.00,0.3195
5427.00,0.3187
5426.00,0.3180
5425.00,0.3176
5424.00,0.3174
5423.00,0.3174
5422.00,0.3173
5421.00,0.3172
5420.00,0.3173
5419.00,0.3177
5418.00,0.3184
5417.00,0.3191
5416.00,0.3197
5415.00,0.3201
5414.00,0.3204
5413.00,0.3202
5412.00,0.3196
5411.00,0.3187
5410.00,0.3179
5409.00,0.3173
5408.00,0.3169
5407.00,0.3166
5406.00,0.3164
5405.00,0.3164
5404.00,0.3163
5403.00,0.3162
5402.00,0.3161
5401.00,0.3162
5400.00,0.3164
5399.00,0.3169
5398.00,0.3174
5397.00,0.3178
5396.00,0.3179
5395.00,0.3176
5394.00,0.3170
5393.00,0.3164
5392.00,0.3159
5391.00,0.3158
5390.00,0.3161
5389.00,0.3166
5388.00,0.3170
5387.00,0.3171
5386.00,0.3168
5385.00,0.3163
5384.00,0.3158
5383.00,0.3155
5382.00,0.3156
5381.00,0.3161
5380.00,0.3168
5379.00,0.3174
5378.00,0.3177
5377.00,0.3176
5376.00,0.3172
5375.00,0.3166
5374.00,0.3159
5373.00,0.3155
5372.00,0.3153
5371.00,0.3153
5370.00,0.3154
5369.00,0.3157
5368.00,0.3160
5367.00,0.3164
5366.00,0.3166
5365.00,0.3167
5364.00,0.3166
5363.00,0.3164
5362.00,0.3162
5361.00,0.3160
5360.00,0.3161
5359.00,0.3166
5358.00,0.3174
5357.00,0.3184
5356.00,0.3192
5355.00,0.3196
5354.00,0.3195
5353.00,0.3192
5352.00,0.3188
5351.00,0.3185
5350.00,0.3186
5349.00,0.3193
5348.00,0.3203
5347.00,0.3210
5346.00,0.3211
5345.00,0.3208
5344.00,0.3205
5343.00,0.3205
5342.00,0.3207
5341.00,0.3211
5340.00,0.3215
5339.00,0.3218
5338.00,0.3216
5337.00,0.3211
5336.00,0.3206
5335.00,0.3204
5334.00,0.3205
5333.00,0.3208
5332.00,0.3214
5331.00,0.3219
5330.00,0.3223
5329.00,0.3224
5328.00,0.3225
5327.00,0.3224
5326.00,0.3223
5325.00,0.3221
5324.00,0.3221
5323.00,0.3223
5322.00,0.3227
5321.00,0.3232
5320.00,0.3236
5319.00,0.3241
5318.00,0.3245
5317.00,0.3249
5316.00,0.3252
5315.00,0.3255
5314.00,0.3259
5313.00,0.3263
5312.00,0.3270
5311.00,0.3279
5310.00,0.3287
5309.00,0.3293
5308.00,0.3298
5307.00,0.3301
5306.00,0.3304
5305.00,0.3307
5304.00,0.3312
5303.00,0.3318
5302.00,0.3325
5301.00,0.3331
5300.00,0.3336
5299.00,0.3341
5298.00,0.3346
5297.00,0.3352
5296.00,0.3360
5295.00,0.3370
5294.00,0.3382
5293.00,0.3394
5292.00,0.3403
5291.00,0.3411
5290.00,0.3418
5289.00,0.3425
5288.00,0.3432
5287.00,0.3440
5286.00,0.3449
5285.00,0.3459
5284.00,0.3470
5283.00,0.3479
5282.00,0.3487
5281.00,0.3496
5280.00,0.3505
5279.00,0.3515
5278.00,0.3524
5277.00,0.3534
5276.00,0.3545
5275.00,0.3557
5274.00,0.3571
5273.00,0.3585
5272.00,0.3599
5271.00,0.3614
5270.00,0.3629
5269.00,0.3644
5268.00,0.3661
5267.00,0.3677
5266.00,0.3693
5265.00,0.3707
5264.00,0.3719
5263.00,0.3729
5262.00,0.3736
5261.00,0.3743
5260.00,0.3755
5259.00,0.3769
5258.00,0.3786
5257.00,0.3802
5256.00,0.3817
5255.00,0.3829
5254.00,0.3841
5253.00,0.3853
5252.00,0.3868
5251.00,0.3886
5250.00,0.3904
5249.00,0.3922
5248.00,0.3938
5247.00,0.3949
5246.00,0.3957
5245.00,0.3964
5244.00,0.3972
5243.00,0.3981
5242.00,0.3991
5241.00,0.4001
5240.00,0.4013
5239.00,0.4026
5238.00,0.4041
5237.00,0.4054
5236.00,0.4068
5235.00,0.4082
5234.00,0.4096
5233.00,0.4109
5232.00,0.4120
5231.00,0.4131
5230.00,0.4143
5229.00,0.4157
5228.00,0.4171
5227.00,0.4183
5226.00,0.4194
5225.00,0.4201
5224.00,0.4207
5223.00,0.4212
5222.00,0.4221
5221.00,0.4231
5220.00,0.4242
5219.00,0.4251
5218.00,0.4260
5217.00,0.4266
5216.00,0.4273
5215.00,0.4281
5214.00,0.4291
5213.00,0.4303
5212.00,0.4317
5211.00,0.4332
5210.00,0.4348
5209.00,0.4361
5208.00,0.4369
5207.00,0.4371
5206.00,0.4370
5205.00,0.4369
5204.00,0.4368
5203.00,0.4371
5202.00,0.4378
5201.00,0.4388
5200.00,0.4398
5199.00,0.4406
5198.00,0.4412
5197.00,0.4415
5196.00,0.4418
5195.00,0.4421
5194.00,0.4424
5193.00,0.4429
5192.00,0.4436
5191.00,0.4442
5190.00,0.4448
5189.00,0.4453
5188.00,0.4458
5187.00,0.4462
5186.00,0.4465
5185.00,0.4467
5184.00,0.4468
5183.00,0.4470
5182.00,0.4471
5181.00,0.4473
5180.00,0.4475
5179.00,0.4477
5178.00,0.4478
5177.00,0.4478
5176.00,0.4479
5175.00,0.4481
5174.00,0.4483
5173.00,0.4484
5172.00,0.4485
5171.00,0.4485
5170.00,0.4485
5169.00,0.4485
5168.00,0.4486
5167.00,0.4487
5166.00,0.4489
5165.00,0.4489
5164.00,0.4489
5163.00,0.4488
5162.00,0.4487
5161.00,0.4485
5160.00,0.4485
5159.00,0.4486
5158.00,0.4485
5157.00,0.4484
5156.00,0.4481
5155.00,0.4478
5154.00,0.4475
5153.00,0.4472
5152.00,0.4469
5151.00,0.4467
5150.00,0.4465
5149.00,0.4462
5148.00,0.4460
5147.00,0.4458
5146.00,0.4456
5145.00,0.4455
5144.00,0.4453
5143.00,0.4451
5142.00,0.4448
5141.00,0.4444
5140.00,0.4441
5139.00,0.4437
5138.00,0.4434
5137.00,0.4431
5136.00,0.4428
5135.00,0.4425
5134.00,0.4422
5133.00,0.4418
5132.00,0.4414
5131.00,0.4410
5130.00,0.4407
5129.00,0.4403
5128.00,0.4399
5127.00,0.4395
5126.00,0.4392
5125.00,0.4388
5124.00,0.4386
5123.00,0.4383
5122.00,0.4381
5121.00,0.4378
5120.00,0.4375
5119.00,0.4371
5118.00,0.4366
5117.00,0.4362
5116.00,0.4358
5115.00,0.4354
5114.00,0.4350
5113.00,0.4347
5112.00,0.4343
5111.00,0.4340
5110.00,0.4336
5109.00,0.4332
5108.00,0.4329
5107.00,0.4325
5106.00,0.4321
5105.00,0.4318
5104.00,0.4314
5103.00,0.4311
5102.00,0.4307
5101.00,0.4304
5100.00,0.4301
5099.00,0.4298
5098.00,0.4294
5097.00,0.4291
5096.00,0.4288
5095.00,0.4285
5094.00,0.4281
5093.00,0.4278
5092.00,0.4274
5091.00,0.4271
5090.00,0.4268
5089.00,0.4265
5088.00,0.4262
5087.00,0.4259
5086.00,0.4256
5085.00,0.4253
5084.00,0.4250
5083.00,0.4248
5082.00,0.4245
5081.00,0.4242
5080.00,0.4239
5079.00,0.4237
5078.00,0.4234
5077.00,0.4231
5076.00,0.4228
5075.00,0.4226
5074.00,0.4224
5073.00,0.4221
5072.00,0.4219
5071.00,0.4216
5070.00,0.4214
5069.00,0.4211
5068.00,0.4208
5067.00,0.4205
5066.00,0.4202
5065.00,0.4199
5064.00,0.4196
5063.00,0.4193
5062.00,0.4190
5061.00,0.4187
5060.00,0.4184
5059.00,0.4181
5058.00,0.4178
5057.00,0.4175
5056.00,0.4172
5055.00,0.4169
5054.00,0.4166
5053.00,0.4162
5052.00,0.4159
5051.00,0.4155
5050.00,0.4152
5049.00,0.4148
5048.00,0.4145
5047.00,0.4142
5046.00,0.4138
5045.00,0.4134
5044.00,0.4130
5043.00,0.4126
5042.00,0.4123
5041.00,0.4119
5040.00,0.4116
5039.00,0.4112
5038.00,0.4108
5037.00,0.4105
5036.00,0.4101
5035.00,0.4098
5034.00,0.4094
5033.00,0.4091
5032.00,0.4087
5031.00,0.4083
5030.00,0.4078
5029.00,0.4074
5028.00,0.4071
5027.00,0.4067
5026.00,0.4064
5025.00,0.4060
5024.00,0.4056
5023.00,0.4051
5022.00,0.4048
5021.00,0.4044
5020.00,0.4041
5019.00,0.4038
5018.00,0.4035
5017.00,0.4032
5016.00,0.4028
5015.00,0.4025
5014.00,0.4022
5013.00,0.4019
5012.00,0.4016
5011.00,0.4013
5010.00,0.4009
5009.00,0.4006
5008.00,0.4003
5007.00,0.4000
5006.00,0.3997
5005.00,0.3994
5004.00,0.3991
5003.00,0.3989
5002.00,0.3986
5001.00,0.3984
5000.00,0.3982
4999.00,0.3980
4998.00,0.3977
4997.00,0.3975
4996.00,0.3973
4995.00,0.3972
4994.00,0.3970
4993.00,0.3968
4992.00,0.3966
4991.00,0.3965
4990.00,0.3963
4989.00,0.3962
4988.00,0.3960
4987.00,0.3959
4986.00,0.3958
4985.00,0.3957
4984.00,0.3957
4983.00,0.3956
4982.00,0.3956
4981.00,0.3955
4980.00,0.3955
4979.00,0.3955
4978.00,0.3955
4977.00,0.3955
4976.00,0.3955
4975.00,0.3955
4974.00,0.3956
4973.00,0.3956
4972.00,0.3957
4971.00,0.3958
4970.00,0.3959
4969.00,0.3960
4968.00,0.3961
4967.00,0.3962
4966.00,0.3964
4965.00,0.3965
4964.00,0.3967
4963.00,0.3969
4962.00,0.3971
4961.00,0.3974
4960.00,0.3976
4959.00,0.3978
4958.00,0.3981
4957.00,0.3983
4956.00,0.3986
4955.00,0.3989
4954.00,0.3991
4953.00,0.3994
4952.00,0.3997
4951.00,0.4000
4950.00,0.4003
4949.00,0.4007
4948.00,0.4010
4947.00,0.4014
4946.00,0.4018
4945.00,0.4022
4944.00,0.4027
4943.00,0.4031
4942.00,0.4035
4941.00,0.4039
4940.00,0.4044
4939.00,0.4048
4938.00,0.4052
4937.00,0.4057
4936.00,0.4061
4935.00,0.4066
4934.00,0.4071
4933.00,0.4076
4932.00,0.4081
4931.00,0.4086
4930.00,0.4091
4929.00,0.4096
4928.00,0.4102
4927.00,0.4107
4926.00,0.4113
4925.00,0.4119
4924.00,0.4124
4923.00,0.4130
4922.00,0.4136
4921.00,0.4142
4920.00,0.4147
4919.00,0.4153
4918.00,0.4159
4917.00,0.4166
4916.00,0.4172
4915.00,0.4179
4914.00,0.4186
4913.00,0.4192
4912.00,0.4199
4911.00,0.4205
4910.00,0.4212
4909.00,0.4219
4908.00,0.4226
4907.00,0.4232
4906.00,0.4239
4905.00,0.4246
4904.00,0.4253
4903.00,0.4260
4902.00,0.4267
4901.00,0.4274
4900.00,0.4282
4899.00,0.4289
4898.00,0.4296
4897.00,0.4303
4896.00,0.4310
4895.00,0.4317
4894.00,0.4325
4893.00,0.4332
4892.00,0.4340
4891.00,0.4347
4890.00,0.4354
4889.00,0.4361
4888.00,0.4368
4887.00,0.4375
4886.00,0.4382
4885.00,0.4389
4884.00,0.4396
4883.00,0.4404
4882.00,0.4411
4881.00,0.4419
4880.00,0.4427
4879.00,0.4434
4878.00,0.4442
4877.00,0.4449
4876.00,0.4456
4875.00,0.4464
4874.00,0.4471
4873.00,0.4478
4872.00,0.4484
4871.00,0.4491
4870.00,0.4498
4869.00,0.4505
4868.00,0.4512
4867.00,0.4519
4866.00,0.4526
4865.00,0.4533
4864.00,0.4540
4863.00,0.4547
4862.00,0.4554
4861.00,0.4560
4860.00,0.4567
4859.00,0.4573
4858.00,0.4579
4857.00,0.4585
4856.00,0.4592
4855.00,0.4598
4854.00,0.4604
4853.00,0.4611
4852.00,0.4617
4851.00,0.4623
4850.00,0.4629
4849.00,0.4635
4848.00,0.4641
4847.00,0.4647
4846.00,0.4653
4845.00,0.4659
4844.00,0.4665
4843.00,0.4672
4842.00,0.4678
4841.00,0.4684
4840.00,0.4690
4839.00,0.4696
4838.00,0.4702
4837.00,0.4707
4836.00,0.4713
4835.00,0.4718
4834.00,0.4724
4833.00,0.4729
4832.00,0.4734
4831.00,0.4739
4830.00,0.4745
4829.00,0.4750
4828.00,0.4755
4827.00,0.4760
4826.00,0.4766
4825.00,0.4771
4824.00,0.4776
4823.00,0.4781
4822.00,0.4785
4821.00,0.4790
4820.00,0.4795
4819.00,0.4800
4818.00,0.4804
4817.00,0.4809
4816.00,0.4813
4815.00,0.4818
4814.00,0.4822
4813.00,0.4826
4812.00,0.4830
4811.00,0.4834
4810.00,0.4838
4809.00,0.4842
4808.00,0.4845
4807.00,0.4849
4806.00,0.4853
4805.00,0.4857
4804.00,0.4860
4803.00,0.4864
4802.00,0.4867
4801.00,0.4870
4800.00,0.4873
4799.00,0.4876
4798.00,0.4879
4797.00,0.4882
4796.00,0.4885
4795.00,0.4888
4794.00,0.4891
4793.00,0.4894
4792.00,0.4896
4791.00,0.4899
4790.00,0.4902
4789.00,0.4905
4788.00,0.4908
4787.00,0.4911
4786.00,0.4913
4785.00,0.4916
4784.00,0.4919
4783.00,0.4921
4782.00,0.4923
4781.00,0.4925
4780.00,0.4927
4779.00,0.4929
4778.00,0.4932
4777.00,0.4934
4776.00,0.4937
4775.00,0.4939
4774.00,0.4941
4773.00,0.4944
4772.00,0.4946
4771.00,0.4947
4770.00,0.4949
4769.00,0.4949
4768.00,0.4950
4767.00,0.4951
4766.00,0.4951
4765.00,0.4952
4764.00,0.4954
4763.00,0.4955
4762.00,0.4957
4761.00,0.4958
4760.00,0.4958
4759.00,0.4959
4758.00,0.4960
4757.00,0.4960
4756.00,0.4961
4755.00,0.4962
4754.00,0.4963
4753.00,0.4963
4752.00,0.4964
4751.00,0.4964
4750.00,0.4963
4749.00,0.4963
4748.00,0.4963
4747.00,0.4963
4746.00,0.4962
4745.00,0.4962
4744.00,0.4962
4743.00,0.4963
4742.00,0.4963
4741.00,0.4962
4740.00,0.4962
4739.00,0.4961
4738.00,0.4961
4737.00,0.4960
4736.00,0.4959
4735.00,0.4958
4734.00,0.4957
4733.00,0.4955
4732.00,0.4954
4731.00,0.4952
4730.00,0.4951
4729.00,0.4949
4728.00,0.4948
4727.00,0.4947
4726.00,0.4946
4725.00,0.4944
4724.00,0.4943
4723.00,0.4941
4722.00,0.4939
4721.00,0.4937
4720.00,0.4935
4719.00,0.4933
4718.00,0.4931
4717.00,0.4929
4716.00,0.4927
4715.00,0.4925
4714.00,0.4923
4713.00,0.4920
4712.00,0.4918
4711.00,0.4915
4710.00,0.4913
4709.00,0.4911
4708.00,0.4909
4707.00,0.4907
4706.00,0.4905
4705.00,0.4903
4704.00,0.4901
4703.00,0.4898
4702.00,0.4895
4701.00,0.4892
4700.00,0.4889
4699.00,0.4886
4698.00,0.4883
4697.00,0.4880
4696.00,0.4878
4695.00,0.4875
4694.00,0.4873
4693.00,0.4870
4692.00,0.4868
4691.00,0.4866
4690.00,0.4864
4689.00,0.4862
4688.00,0.4859
4687.00,0.4857
4686.00,0.4854
4685.00,0.4851
4684.00,0.4849
4683.00,0.4848
4682.00,0.4845
4681.00,0.4843
4680.00,0.4840
4679.00,0.4837
4678.00,0.4834
4677.00,0.4831
4676.00,0.4828
4675.00,0.4825
4674.00,0.4823
4673.00,0.4820
4672.00,0.4818
4671.00,0.4815
4670.00,0.4813
4669.00,0.4810
4668.00,0.4808
4667.00,0.4805
4666.00,0.4803
4665.00,0.4800
4664.00,0.4797
4663.00,0.4794
4662.00,0.4792
4661.00,0.4789
4660.00,0.4787
4659.00,0.4785
4658.00,0.4782
4657.00,0.4780
4656.00,0.4777
4655.00,0.4774
4654.00,0.4771
4653.00,0.4768
4652.00,0.4765
4651.00,0.4763
4650.00,0.4761
4649.00,0.4759
4648.00,0.4757
4647.00,0.4755
4646.00,0.4753
4645.00,0.4751
4644.00,0.4749
4643.00,0.4747
4642.00,0.4744
4641.00,0.4742
4640.00,0.4739
4639.00,0.4737
4638.00,0.4735
4637.00,0.4733
4636.00,0.4730
4635.00,0.4728
4634.00,0.4726
4633.00,0.4724
4632.00,0.4722
4631.00,0.4721
4630.00,0.4719
4629.00,0.4717
4628.00,0.4715
4627.00,0.4714
4626.00,0.4712
4625.00,0.4711
4624.00,0.4710
4623.00,0.4708
4622.00,0.4707
4621.00,0.4706
4620.00,0.4704
4619.00,0.4703
4618.00,0.4702
4617.00,0.4700
4616.00,0.4699
4615.00,0.4698
4614.00,0.4696
4613.00,0.4695
4612.00,0.4694
4611.00,0.4693
4610.00,0.4692
4609.00,0.4690
4608.00,0.4689
4607.00,0.4687
4606.00,0.4686
4605.00,0.4684
4604.00,0.4683
4603.00,0.4681
4602.00,0.4680
4601.00,0.4679
4600.00,0.4677
4599.00,0.4676
4598.00,0.4675
4597.00,0.4674
4596.00,0.4673
4595.00,0.4672
4594.00,0.4671
4593.00,0.4670
4592.00,0.4668
4591.00,0.4667
4590.00,0.4665
4589.00,0.4664
4588.00,0.4663
4587.00,0.4662
4586.00,0.4662
4585.00,0.4661
4584.00,0.4661
4583.00,0.4661
4582.00,0.4660
4581.00,0.4659
4580.00,0.4658
4579.00,0.4656
4578.00,0.4655
4577.00,0.4655
4576.00,0.4654
4575.00,0.4653
4574.00,0.4652
4573.00,0.4650
4572.00,0.4649
4571.00,0.4648
4570.00,0.4646
4569.00,0.4645
4568.00,0.4644
4567.00,0.4643
4566.00,0.4642
4565.00,0.4641
4564.00,0.4640
4563.00,0.4639
4562.00,0.4638
4561.00,0.4637
4560.00,0.4635
4559.00,0.4634
4558.00,0.4632
4557.00,0.4630
4556.00,0.4629
4555.00,0.4627
4554.00,0.4626
4553.00,0.4624
4552.00,0.4623
4551.00,0.4621
4550.00,0.4620
4549.00,0.4618
4548.00,0.4616
4547.00,0.4615
4546.00,0.4613
4545.00,0.4611
4544.00,0.4609
4543.00,0.4607
4542.00,0.4605
4541.00,0.4603
4540.00,0.4601
4539.00,0.4599
4538.00,0.4597
4537.00,0.4595
4536.00,0.4593
4535.00,0.4590
4534.00,0.4588
4533.00,0.4587
4532.00,0.4585
4531.00,0.4583
4530.00,0.4581
4529.00,0.4579
4528.00,0.4577
4527.00,0.4574
4526.00,0.4572
4525.00,0.4569
4524.00,0.4567
4523.00,0.4565
4522.00,0.4563
4521.00,0.4560
4520.00,0.4558
4519.00,0.4556
4518.00,0.4553
4517.00,0.4551
4516.00,0.4549
4515.00,0.4547
4514.00,0.4544
4513.00,0.4542
4512.00,0.4539
4511.00,0.4537
4510.00,0.4535
4509.00,0.4533
4508.00,0.4531
4507.00,0.4530
4506.00,0.4528
4505.00,0.4527
4504.00,0.4525
4503.00,0.4523
4502.00,0.4522
4501.00,0.4520
4500.00,0.4518
4499.00,0.4517
4498.00,0.4515
4497.00,0.4514
4496.00,0.4513
4495.00,0.4513
4494.00,0.4512
4493.00,0.4511
4492.00,0.4510
4491.00,0.4510
4490.00,0.4510
4489.00,0.4510
4488.00,0.4510
4487.00,0.4510
4486.00,0.4510
4485.00,0.4510
4484.00,0.4511
4483.00,0.4512
4482.00,0.4513
4481.00,0.4515
4480.00,0.4517
4479.00,0.4519
4478.00,0.4521
4477.00,0.4523
4476.00,0.4525
4475.00,0.4527
4474.00,0.4530
4473.00,0.4532
4472.00,0.4535
4471.00,0.4538
4470.00,0.4541
4469.00,0.4544
4468.00,0.4548
4467.00,0.4552
4466.00,0.4556
4465.00,0.4560
4464.00,0.4564
4463.00,0.4569
4462.00,0.4573
4461.00,0.4578
4460.00,0.4583
4459.00,0.4588
4458.00,0.4593
4457.00,0.4598
4456.00,0.4603
4455.00,0.4608
4454.00,0.4613
4453.00,0.4618
4452.00,0.4622
4451.00,0.4627
4450.00,0.4632
4449.00,0.4637
4448.00,0.4642
4447.00,0.4647
4446.00,0.4652
4445.00,0.4657
4444.00,0.4663
4443.00,0.4668
4442.00,0.4673
4441.00,0.4678
4440.00,0.4683
4439.00,0.4688
4438.00,0.4693
4437.00,0.4698
4436.00,0.4704
4435.00,0.4710
4434.00,0.4716
4433.00,0.4722
4432.00,0.4729
4431.00,0.4736
4430.00,0.4743
4429.00,0.4749
4428.00,0.4755
4427.00,0.4762
4426.00,0.4768
4425.00,0.4774
4424.00,0.4781
4423.00,0.4789
4422.00,0.4797
4421.00,0.4804
4420.00,0.4811
4419.00,0.4817
4418.00,0.4824
4417.00,0.4830
4416.00,0.4835
4415.00,0.4841
4414.00,0.4846
4413.00,0.4852
4412.00,0.4857
4411.00,0.4862
4410.00,0.4867
4409.00,0.4873
4408.00,0.4878
4407.00,0.4883
4406.00,0.4888
4405.00,0.4893
4404.00,0.4897
4403.00,0.4900
4402.00,0.4903
4401.00,0.4906
4400.00,0.4910
4399.00,0.4912
4398.00,0.4915
4397.00,0.4917
4396.00,0.4919
4395.00,0.4920
4394.00,0.4921
4393.00,0.4921
4392.00,0.4921
4391.00,0.4921
4390.00,0.4921
4389.00,0.4920
4388.00,0.4919
4387.00,0.4918
4386.00,0.4917
4385.00,0.4916
4384.00,0.4914
4383.00,0.4913
4382.00,0.4911
4381.00,0.4909
4380.00,0.4907
4379.00,0.4904
4378.00,0.4902
4377.00,0.4900
4376.00,0.4897
4375.00,0.4895
4374.00,0.4892
4373.00,0.4889
4372.00,0.4886
4371.00,0.4884
4370.00,0.4881
4369.00,0.4878
4368.00,0.4876
4367.00,0.4873
4366.00,0.4871
4365.00,0.4869
4364.00,0.4867
4363.00,0.4865
4362.00,0.4864
4361.00,0.4863
4360.00,0.4863
4359.00,0.4862
4358.00,0.4862
4357.00,0.4862
4356.00,0.4862
4355.00,0.4863
4354.00,0.4863
4353.00,0.4864
4352.00,0.4865
4351.00,0.4866
4350.00,0.4867
4349.00,0.4868
4348.00,0.4869
4347.00,0.4871
4346.00,0.4873
4345.00,0.4874
4344.00,0.4876
4343.00,0.4877
4342.00,0.4879
4341.00,0.4882
4340.00,0.4884
4339.00,0.4887
4338.00,0.4890
4337.00,0.4894
4336.00,0.4897
4335.00,0.4901
4334.00,0.4904
4333.00,0.4908
4332.00,0.4912
4331.00,0.4915
4330.00,0.4918
4329.00,0.4921
4328.00,0.4923
4327.00,0.4926
4326.00,0.4928
4325.00,0.4931
4324.00,0.4933
4323.00,0.4936
4322.00,0.4939
4321.00,0.4942
4320.00,0.4945
4319.00,0.4947
4318.00,0.4950
4317.00,0.4952
4316.00,0.4953
4315.00,0.4955
4314.00,0.4957
4313.00,0.4959
4312.00,0.4962
4311.00,0.4964
4310.00,0.4967
4309.00,0.4970
4308.00,0.4972
4307.00,0.4974
4306.00,0.4976
4305.00,0.4978
4304.00,0.4980
4303.00,0.4982
4302.00,0.4984
4301.00,0.4985
4300.00,0.4986
4299.00,0.4987
4298.00,0.4987
4297.00,0.4987
4296.00,0.4988
4295.00,0.4988
4294.00,0.4989
4293.00,0.4988
4292.00,0.4988
4291.00,0.4987
4290.00,0.4986
4289.00,0.4986
4288.00,0.4985
4287.00,0.4985
4286.00,0.4984
4285.00,0.4984
4284.00,0.4982
4283.00,0.4981
4282.00,0.4980
4281.00,0.4978
4280.00,0.4977
4279.00,0.4975
4278.00,0.4974
4277.00,0.4973
4276.00,0.4973
4275.00,0.4973
4274.00,0.4973
4273.00,0.4973
4272.00,0.4972
4271.00,0.4971
4270.00,0.4971
4269.00,0.4970
4268.00,0.4970
4267.00,0.4970
4266.00,0.4970
4265.00,0.4970
4264.00,0.4969
4263.00,0.4969
4262.00,0.4969
4261.00,0.4970
4260.00,0.4970
4259.00,0.4970
4258.00,0.4971
4257.00,0.4971
4256.00,0.4971
4255.00,0.4971
4254.00,0.4971
4253.00,0.4970
4252.00,0.4970
4251.00,0.4969
4250.00,0.4968
4249.00,0.4968
4248.00,0.4967
4247.00,0.4968
4246.00,0.4968
4245.00,0.4969
4244.00,0.4970
4243.00,0.4970
4242.00,0.4970
4241.00,0.4970
4240.00,0.4970
4239.00,0.4970
4238.00,0.4970
4237.00,0.4971
4236.00,0.4972
4235.00,0.4972
4234.00,0.4973
4233.00,0.4973
4232.00,0.4973
4231.00,0.4974
4230.00,0.4974
4229.00,0.4974
4228.00,0.4974
4227.00,0.4974
4226.00,0.4973
4225.00,0.4973
4224.00,0.4973
4223.00,0.4973
4222.00,0.4973
4221.00,0.4973
4220.00,0.4973
4219.00,0.4972
4218.00,0.4971
4217.00,0.4971
4216.00,0.4971
4215.00,0.4970
4214.00,0.4970
4213.00,0.4969
4212.00,0.4968
4211.00,0.4967
4210.00,0.4966
4209.00,0.4966
4208.00,0.4965
4207.00,0.4964
4206.00,0.4964
4205.00,0.4964
4204.00,0.4963
4203.00,0.4963
4202.00,0.4963
4201.00,0.4963
4200.00,0.4963
4199.00,0.4963
4198.00,0.4963
4197.00,0.4963
4196.00,0.4964
4195.00,0.4964
4194.00,0.4964
4193.00,0.4964
4192.00,0.4965
4191.00,0.4965
4190.00,0.4966
4189.00,0.4967
4188.00,0.4969
4187.00,0.4970
4186.00,0.4972
4185.00,0.4973
4184.00,0.4974
4183.00,0.4976
4182.00,0.4978
4181.00,0.4980
4180.00,0.4981
4179.00,0.4983
4178.00,0.4984
4177.00,0.4987
4176.00,0.4989
4175.00,0.4992
4174.00,0.4995
4173.00,0.4998
4172.00,0.5000
4171.00,0.5003
4170.00,0.5006
4169.00,0.5008
4168.00,0.5011
4167.00,0.5015
4166.00,0.5018
4165.00,0.5022
4164.00,0.5026
4163.00,0.5030
4162.00,0.5034
4161.00,0.5039
4160.00,0.5043
4159.00,0.5048
4158.00,0.5052
4157.00,0.5057
4156.00,0.5062
4155.00,0.5067
4154.00,0.5072
4153.00,0.5077
4152.00,0.5082
4151.00,0.5088
4150.00,0.5094
4149.00,0.5101
4148.00,0.5108
4147.00,0.5114
4146.00,0.5121
4145.00,0.5127
4144.00,0.5133
4143.00,0.5139
4142.00,0.5145
4141.00,0.5151
4140.00,0.5157
4139.00,0.5164
4138.00,0.5171
4137.00,0.5178
4136.00,0.5186
4135.00,0.5194
4134.00,0.5201
4133.00,0.5208
4132.00,0.5216
4131.00,0.5224
4130.00,0.5232
4129.00,0.5240
4128.00,0.5248
4127.00,0.5256
4126.00,0.5265
4125.00,0.5273
4124.00,0.5282
4123.00,0.5291
4122.00,0.5299
4121.00,0.5308
4120.00,0.5317
4119.00,0.5326
4118.00,0.5335
4117.00,0.5345
4116.00,0.5354
4115.00,0.5364
4114.00,0.5374
4113.00,0.5383
4112.00,0.5393
4111.00,0.5403
4110.00,0.5413
4109.00,0.5423
4108.00,0.5433
4107.00,0.5443
4106.00,0.5453
4105.00,0.5463
4104.00,0.5472
4103.00,0.5482
4102.00,0.5493
4101.00,0.5503
4100.00,0.5514
4099.00,0.5525
4098.00,0.5536
4097.00,0.5547
4096.00,0.5558
4095.00,0.5569
4094.00,0.5580
4093.00,0.5592
4092.00,0.5603
4091.00,0.5616
4090.00,0.5628
4089.00,0.5641
4088.00,0.5653
4087.00,0.5664
4086.00,0.5676
4085.00,0.5687
4084.00,0.5699
4083.00,0.5711
4082.00,0.5724
4081.00,0.5736
4080.00,0.5748
4079.00,0.5760
4078.00,0.5771
4077.00,0.5782
4076.00,0.5794
4075.00,0.5806
4074.00,0.5818
4073.00,0.5830
4072.00,0.5843
4071.00,0.5855
4070.00,0.5868
4069.00,0.5881
4068.00,0.5894
4067.00,0.5908
4066.00,0.5921
4065.00,0.5933
4064.00,0.5946
4063.00,0.5958
4062.00,0.5970
4061.00,0.5983
4060.00,0.5996
4059.00,0.6009
4058.00,0.6022
4057.00,0.6034
4056.00,0.6046
4055.00,0.6057
4054.00,0.6069
4053.00,0.6081
4052.00,0.6092
4051.00,0.6103
4050.00,0.6116
4049.00,0.6128
4048.00,0.6142
4047.00,0.6155
4046.00,0.6168
4045.00,0.6178
4044.00,0.6188
4043.00,0.6197
4042.00,0.6206
4041.00,0.6216
4040.00,0.6227
4039.00,0.6237
4038.00,0.6247
4037.00,0.6256
4036.00,0.6265
4035.00,0.6275
4034.00,0.6284
4033.00,0.6294
4032.00,0.6303
4031.00,0.6311
4030.00,0.6318
4029.00,0.6325
4028.00,0.6332
4027.00,0.6340
4026.00,0.6348
4025.00,0.6355
4024.00,0.6362
4023.00,0.6368
4022.00,0.6374
4021.00,0.6379
4020.00,0.6384
4019.00,0.6388
4018.00,0.6391
4017.00,0.6394
4016.00,0.6397
4015.00,0.6400
4014.00,0.6403
4013.00,0.6405
4012.00,0.6406
4011.00,0.6407
4010.00,0.6409
4009.00,0.6409
4008.00,0.6409
4007.00,0.6409
4006.00,0.6408
4005.00,0.6406
4004.00,0.6405
4003.00,0.6404
4002.00,0.6404
4001.00,0.6403
4000.00,0.6401
   㕕侱�
♼⠨⚚