Created As ASCII File,样品 031 用户 Administrator 日期 星期三, 四月 21 2021
cm-1,A
12000.00,0.2132
11999.00,0.2134
11998.00,0.2134
11997.00,0.2134
11996.00,0.2132
11995.00,0.2130
11994.00,0.2129
11993.00,0.2128
11992.00,0.2126
11991.00,0.2124
11990.00,0.2120
11989.00,0.2118
11988.00,0.2117
11987.00,0.2120
11986.00,0.2124
11985.00,0.2128
11984.00,0.2130
11983.00,0.2130
11982.00,0.2127
11981.00,0.2125
11980.00,0.2124
11979.00,0.2126
11978.00,0.2130
11977.00,0.2133
11976.00,0.2135
11975.00,0.2134
11974.00,0.2132
11973.00,0.2130
11972.00,0.2128
11971.00,0.2127
11970.00,0.2127
11969.00,0.2128
11968.00,0.2128
11967.00,0.2128
11966.00,0.2127
11965.00,0.2126
11964.00,0.2124
11963.00,0.2122
11962.00,0.2119
11961.00,0.2118
11960.00,0.2118
11959.00,0.2120
11958.00,0.2122
11957.00,0.2123
11956.00,0.2123
11955.00,0.2121
11954.00,0.2119
11953.00,0.2118
11952.00,0.2118
11951.00,0.2121
11950.00,0.2124
11949.00,0.2126
11948.00,0.2127
11947.00,0.2125
11946.00,0.2122
11945.00,0.2120
11944.00,0.2118
11943.00,0.2119
11942.00,0.2120
11941.00,0.2122
11940.00,0.2125
11939.00,0.2126
11938.00,0.2128
11937.00,0.2129
11936.00,0.2129
11935.00,0.2129
11934.00,0.2127
11933.00,0.2126
11932.00,0.2126
11931.00,0.2127
11930.00,0.2129
11929.00,0.2130
11928.00,0.2130
11927.00,0.2129
11926.00,0.2126
11925.00,0.2123
11924.00,0.2122
11923.00,0.2122
11922.00,0.2124
11921.00,0.2125
11920.00,0.2125
11919.00,0.2124
11918.00,0.2121
11917.00,0.2119
11916.00,0.2119
11915.00,0.2120
11914.00,0.2123
11913.00,0.2125
11912.00,0.2126
11911.00,0.2125
11910.00,0.2122
11909.00,0.2119
11908.00,0.2118
11907.00,0.2119
11906.00,0.2121
11905.00,0.2125
11904.00,0.2127
11903.00,0.2128
11902.00,0.2127
11901.00,0.2125
11900.00,0.2123
11899.00,0.2122
11898.00,0.2122
11897.00,0.2122
11896.00,0.2124
11895.00,0.2125
11894.00,0.2126
11893.00,0.2126
11892.00,0.2124
11891.00,0.2122
11890.00,0.2119
11889.00,0.2117
11888.00,0.2115
11887.00,0.2116
11886.00,0.2118
11885.00,0.2120
11884.00,0.2123
11883.00,0.2124
11882.00,0.2125
11881.00,0.2126
11880.00,0.2127
11879.00,0.2128
11878.00,0.2130
11877.00,0.2131
11876.00,0.2131
11875.00,0.2130
11874.00,0.2128
11873.00,0.2127
11872.00,0.2127
11871.00,0.2128
11870.00,0.2130
11869.00,0.2131
11868.00,0.2130
11867.00,0.2127
11866.00,0.2124
11865.00,0.2123
11864.00,0.2123
11863.00,0.2126
11862.00,0.2130
11861.00,0.2133
11860.00,0.2133
11859.00,0.2132
11858.00,0.2129
11857.00,0.2127
11856.00,0.2127
11855.00,0.2127
11854.00,0.2129
11853.00,0.2130
11852.00,0.2130
11851.00,0.2129
11850.00,0.2128
11849.00,0.2127
11848.00,0.2126
11847.00,0.2125
11846.00,0.2123
11845.00,0.2120
11844.00,0.2118
11843.00,0.2116
11842.00,0.2116
11841.00,0.2116
11840.00,0.2119
11839.00,0.2121
11838.00,0.2124
11837.00,0.2127
11836.00,0.2128
11835.00,0.2128
11834.00,0.2127
11833.00,0.2126
11832.00,0.2127
11831.00,0.2130
11830.00,0.2134
11829.00,0.2138
11828.00,0.2139
11827.00,0.2137
11826.00,0.2132
11825.00,0.2128
11824.00,0.2126
11823.00,0.2128
11822.00,0.2132
11821.00,0.2138
11820.00,0.2140
11819.00,0.2139
11818.00,0.2135
11817.00,0.2130
11816.00,0.2127
11815.00,0.2125
11814.00,0.2126
11813.00,0.2126
11812.00,0.2125
11811.00,0.2123
11810.00,0.2120
11809.00,0.2118
11808.00,0.2117
11807.00,0.2119
11806.00,0.2122
11805.00,0.2125
11804.00,0.2127
11803.00,0.2128
11802.00,0.2128
11801.00,0.2129
11800.00,0.2130
11799.00,0.2133
11798.00,0.2135
11797.00,0.2136
11796.00,0.2135
11795.00,0.2134
11794.00,0.2131
11793.00,0.2128
11792.00,0.2127
11791.00,0.2126
11790.00,0.2127
11789.00,0.2127
11788.00,0.2127
11787.00,0.2127
11786.00,0.2125
11785.00,0.2124
11784.00,0.2122
11783.00,0.2122
11782.00,0.2122
11781.00,0.2122
11780.00,0.2123
11779.00,0.2125
11778.00,0.2126
11777.00,0.2128
11776.00,0.2130
11775.00,0.2133
11774.00,0.2136
11773.00,0.2140
11772.00,0.2143
11771.00,0.2145
11770.00,0.2146
11769.00,0.2145
11768.00,0.2142
11767.00,0.2139
11766.00,0.2136
11765.00,0.2134
11764.00,0.2132
11763.00,0.2130
11762.00,0.2128
11761.00,0.2126
11760.00,0.2123
11759.00,0.2121
11758.00,0.2120
11757.00,0.2121
11756.00,0.2123
11755.00,0.2125
11754.00,0.2126
11753.00,0.2128
11752.00,0.2128
11751.00,0.2128
11750.00,0.2128
11749.00,0.2127
11748.00,0.2125
11747.00,0.2122
11746.00,0.2119
11745.00,0.2116
11744.00,0.2115
11743.00,0.2115
11742.00,0.2116
11741.00,0.2119
11740.00,0.2121
11739.00,0.2123
11738.00,0.2123
11737.00,0.2124
11736.00,0.2124
11735.00,0.2126
11734.00,0.2128
11733.00,0.2132
11732.00,0.2135
11731.00,0.2137
11730.00,0.2137
11729.00,0.2136
11728.00,0.2133
11727.00,0.2130
11726.00,0.2128
11725.00,0.2125
11724.00,0.2123
11723.00,0.2122
11722.00,0.2120
11721.00,0.2118
11720.00,0.2117
11719.00,0.2115
11718.00,0.2114
11717.00,0.2114
11716.00,0.2113
11715.00,0.2112
11714.00,0.2113
11713.00,0.2114
11712.00,0.2118
11711.00,0.2122
11710.00,0.2126
11709.00,0.2128
11708.00,0.2129
11707.00,0.2128
11706.00,0.2127
11705.00,0.2127
11704.00,0.2128
11703.00,0.2132
11702.00,0.2135
11701.00,0.2137
11700.00,0.2137
11699.00,0.2135
11698.00,0.2131
11697.00,0.2129
11696.00,0.2129
11695.00,0.2130
11694.00,0.2132
11693.00,0.2133
11692.00,0.2134
11691.00,0.2134
11690.00,0.2133
11689.00,0.2131
11688.00,0.2129
11687.00,0.2126
11686.00,0.2124
11685.00,0.2123
11684.00,0.2123
11683.00,0.2126
11682.00,0.2128
11681.00,0.2130
11680.00,0.2130
11679.00,0.2129
11678.00,0.2128
11677.00,0.2129
11676.00,0.2131
11675.00,0.2135
11674.00,0.2137
11673.00,0.2137
11672.00,0.2135
11671.00,0.2131
11670.00,0.2127
11669.00,0.2125
11668.00,0.2126
11667.00,0.2127
11666.00,0.2129
11665.00,0.2129
11664.00,0.2128
11663.00,0.2127
11662.00,0.2126
11661.00,0.2127
11660.00,0.2129
11659.00,0.2131
11658.00,0.2132
11657.00,0.2132
11656.00,0.2131
11655.00,0.2129
11654.00,0.2128
11653.00,0.2127
11652.00,0.2127
11651.00,0.2127
11650.00,0.2126
11649.00,0.2125
11648.00,0.2123
11647.00,0.2120
11646.00,0.2118
11645.00,0.2117
11644.00,0.2118
11643.00,0.2119
11642.00,0.2120
11641.00,0.2120
11640.00,0.2120
11639.00,0.2120
11638.00,0.2121
11637.00,0.2122
11636.00,0.2125
11635.00,0.2126
11634.00,0.2127
11633.00,0.2127
11632.00,0.2127
11631.00,0.2126
11630.00,0.2126
11629.00,0.2125
11628.00,0.2124
11627.00,0.2124
11626.00,0.2123
11625.00,0.2123
11624.00,0.2124
11623.00,0.2126
11622.00,0.2128
11621.00,0.2131
11620.00,0.2133
11619.00,0.2135
11618.00,0.2136
11617.00,0.2135
11616.00,0.2133
11615.00,0.2131
11614.00,0.2128
11613.00,0.2126
11612.00,0.2126
11611.00,0.2128
11610.00,0.2131
11609.00,0.2133
11608.00,0.2134
11607.00,0.2133
11606.00,0.2131
11605.00,0.2128
11604.00,0.2126
11603.00,0.2124
11602.00,0.2124
11601.00,0.2125
11600.00,0.2126
11599.00,0.2127
11598.00,0.2127
11597.00,0.2126
11596.00,0.2124
11595.00,0.2122
11594.00,0.2120
11593.00,0.2119
11592.00,0.2120
11591.00,0.2122
11590.00,0.2127
11589.00,0.2132
11588.00,0.2137
11587.00,0.2141
11586.00,0.2143
11585.00,0.2143
11584.00,0.2141
11583.00,0.2138
11582.00,0.2136
11581.00,0.2136
11580.00,0.2138
11579.00,0.2139
11578.00,0.2140
11577.00,0.2137
11576.00,0.2133
11575.00,0.2126
11574.00,0.2120
11573.00,0.2116
11572.00,0.2116
11571.00,0.2119
11570.00,0.2123
11569.00,0.2127
11568.00,0.2130
11567.00,0.2130
11566.00,0.2129
11565.00,0.2127
11564.00,0.2126
11563.00,0.2126
11562.00,0.2127
11561.00,0.2128
11560.00,0.2130
11559.00,0.2130
11558.00,0.2129
11557.00,0.2126
11556.00,0.2124
11555.00,0.2122
11554.00,0.2121
11553.00,0.2122
11552.00,0.2124
11551.00,0.2126
11550.00,0.2127
11549.00,0.2127
11548.00,0.2125
11547.00,0.2123
11546.00,0.2122
11545.00,0.2122
11544.00,0.2123
11543.00,0.2126
11542.00,0.2128
11541.00,0.2129
11540.00,0.2128
11539.00,0.2127
11538.00,0.2126
11537.00,0.2126
11536.00,0.2126
11535.00,0.2127
11534.00,0.2127
11533.00,0.2126
11532.00,0.2124
11531.00,0.2125
11530.00,0.2127
11529.00,0.2131
11528.00,0.2135
11527.00,0.2137
11526.00,0.2137
11525.00,0.2133
11524.00,0.2130
11523.00,0.2128
11522.00,0.2128
11521.00,0.2130
11520.00,0.2132
11519.00,0.2131
11518.00,0.2126
11517.00,0.2118
11516.00,0.2112
11515.00,0.2108
11514.00,0.2110
11513.00,0.2115
11512.00,0.2121
11511.00,0.2125
11510.00,0.2126
11509.00,0.2124
11508.00,0.2123
11507.00,0.2124
11506.00,0.2128
11505.00,0.2134
11504.00,0.2140
11503.00,0.2143
11502.00,0.2142
11501.00,0.2140
11500.00,0.2138
11499.00,0.2136
11498.00,0.2135
11497.00,0.2135
11496.00,0.2134
11495.00,0.2133
11494.00,0.2133
11493.00,0.2132
11492.00,0.2133
11491.00,0.2133
11490.00,0.2132
11489.00,0.2130
11488.00,0.2128
11487.00,0.2126
11486.00,0.2125
11485.00,0.2126
11484.00,0.2128
11483.00,0.2130
11482.00,0.2131
11481.00,0.2131
11480.00,0.2130
11479.00,0.2129
11478.00,0.2126
11477.00,0.2123
11476.00,0.2122
11475.00,0.2121
11474.00,0.2123
11473.00,0.2127
11472.00,0.2131
11471.00,0.2134
11470.00,0.2135
11469.00,0.2133
11468.00,0.2131
11467.00,0.2129
11466.00,0.2129
11465.00,0.2130
11464.00,0.2133
11463.00,0.2136
11462.00,0.2139
11461.00,0.2140
11460.00,0.2139
11459.00,0.2138
11458.00,0.2135
11457.00,0.2132
11456.00,0.2130
11455.00,0.2130
11454.00,0.2130
11453.00,0.2131
11452.00,0.2132
11451.00,0.2131
11450.00,0.2129
11449.00,0.2126
11448.00,0.2124
11447.00,0.2123
11446.00,0.2124
11445.00,0.2126
11444.00,0.2128
11443.00,0.2129
11442.00,0.2128
11441.00,0.2127
11440.00,0.2126
11439.00,0.2126
11438.00,0.2127
11437.00,0.2127
11436.00,0.2127
11435.00,0.2125
11434.00,0.2122
11433.00,0.2120
11432.00,0.2119
11431.00,0.2119
11430.00,0.2120
11429.00,0.2121
11428.00,0.2122
11427.00,0.2122
11426.00,0.2123
11425.00,0.2124
11424.00,0.2125
11423.00,0.2126
11422.00,0.2127
11421.00,0.2128
11420.00,0.2130
11419.00,0.2132
11418.00,0.2135
11417.00,0.2137
11416.00,0.2138
11415.00,0.2137
11414.00,0.2136
11413.00,0.2134
11412.00,0.2134
11411.00,0.2134
11410.00,0.2136
11409.00,0.2137
11408.00,0.2138
11407.00,0.2137
11406.00,0.2136
11405.00,0.2135
11404.00,0.2135
11403.00,0.2135
11402.00,0.2135
11401.00,0.2135
11400.00,0.2134
11399.00,0.2134
11398.00,0.2133
11397.00,0.2131
11396.00,0.2130
11395.00,0.2128
11394.00,0.2127
11393.00,0.2127
11392.00,0.2128
11391.00,0.2129
11390.00,0.2132
11389.00,0.2134
11388.00,0.2135
11387.00,0.2135
11386.00,0.2134
11385.00,0.2132
11384.00,0.2130
11383.00,0.2128
11382.00,0.2127
11381.00,0.2127
11380.00,0.2127
11379.00,0.2127
11378.00,0.2126
11377.00,0.2124
11376.00,0.2122
11375.00,0.2120
11374.00,0.2121
11373.00,0.2123
11372.00,0.2125
11371.00,0.2127
11370.00,0.2128
11369.00,0.2129
11368.00,0.2129
11367.00,0.2129
11366.00,0.2130
11365.00,0.2133
11364.00,0.2135
11363.00,0.2138
11362.00,0.2140
11361.00,0.2140
11360.00,0.2138
11359.00,0.2135
11358.00,0.2131
11357.00,0.2128
11356.00,0.2127
11355.00,0.2126
11354.00,0.2126
11353.00,0.2125
11352.00,0.2122
11351.00,0.2117
11350.00,0.2114
11349.00,0.2113
11348.00,0.2115
11347.00,0.2119
11346.00,0.2123
11345.00,0.2126
11344.00,0.2126
11343.00,0.2125
11342.00,0.2125
11341.00,0.2126
11340.00,0.2128
11339.00,0.2131
11338.00,0.2133
11337.00,0.2134
11336.00,0.2134
11335.00,0.2133
11334.00,0.2133
11333.00,0.2133
11332.00,0.2134
11331.00,0.2134
11330.00,0.2135
11329.00,0.2136
11328.00,0.2135
11327.00,0.2134
11326.00,0.2132
11325.00,0.2129
11324.00,0.2129
11323.00,0.2129
11322.00,0.2132
11321.00,0.2134
11320.00,0.2135
11319.00,0.2134
11318.00,0.2132
11317.00,0.2130
11316.00,0.2130
11315.00,0.2133
11314.00,0.2137
11313.00,0.2141
11312.00,0.2143
11311.00,0.2142
11310.00,0.2141
11309.00,0.2139
11308.00,0.2139
11307.00,0.2141
11306.00,0.2143
11305.00,0.2145
11304.00,0.2145
11303.00,0.2144
11302.00,0.2142
11301.00,0.2139
11300.00,0.2137
11299.00,0.2136
11298.00,0.2136
11297.00,0.2136
11296.00,0.2136
11295.00,0.2136
11294.00,0.2135
11293.00,0.2134
11292.00,0.2133
11291.00,0.2131
11290.00,0.2131
11289.00,0.2131
11288.00,0.2132
11287.00,0.2133
11286.00,0.2133
11285.00,0.2132
11284.00,0.2131
11283.00,0.2130
11282.00,0.2129
11281.00,0.2129
11280.00,0.2131
11279.00,0.2134
11278.00,0.2136
11277.00,0.2139
11276.00,0.2140
11275.00,0.2141
11274.00,0.2141
11273.00,0.2142
11272.00,0.2142
11271.00,0.2142
11270.00,0.2142
11269.00,0.2140
11268.00,0.2137
11267.00,0.2133
11266.00,0.2131
11265.00,0.2130
11264.00,0.2130
11263.00,0.2130
11262.00,0.2130
11261.00,0.2129
11260.00,0.2127
11259.00,0.2126
11258.00,0.2127
11257.00,0.2130
11256.00,0.2133
11255.00,0.2136
11254.00,0.2136
11253.00,0.2135
11252.00,0.2133
11251.00,0.2130
11250.00,0.2129
11249.00,0.2128
11248.00,0.2129
11247.00,0.2130
11246.00,0.2130
11245.00,0.2130
11244.00,0.2130
11243.00,0.2128
11242.00,0.2126
11241.00,0.2124
11240.00,0.2123
11239.00,0.2124
11238.00,0.2125
11237.00,0.2128
11236.00,0.2129
11235.00,0.2129
11234.00,0.2127
11233.00,0.2124
11232.00,0.2123
11231.00,0.2123
11230.00,0.2126
11229.00,0.2129
11228.00,0.2130
11227.00,0.2130
11226.00,0.2129
11225.00,0.2129
11224.00,0.2129
11223.00,0.2132
11222.00,0.2134
11221.00,0.2135
11220.00,0.2135
11219.00,0.2133
11218.00,0.2132
11217.00,0.2132
11216.00,0.2134
11215.00,0.2136
11214.00,0.2136
11213.00,0.2135
11212.00,0.2131
11211.00,0.2127
11210.00,0.2126
11209.00,0.2127
11208.00,0.2130
11207.00,0.2132
11206.00,0.2132
11205.00,0.2130
11204.00,0.2127
11203.00,0.2125
11202.00,0.2126
11201.00,0.2130
11200.00,0.2133
11199.00,0.2136
11198.00,0.2137
11197.00,0.2136
11196.00,0.2135
11195.00,0.2136
11194.00,0.2137
11193.00,0.2138
11192.00,0.2138
11191.00,0.2136
11190.00,0.2133
11189.00,0.2131
11188.00,0.2130
11187.00,0.2131
11186.00,0.2132
11185.00,0.2132
11184.00,0.2131
11183.00,0.2130
11182.00,0.2129
11181.00,0.2129
11180.00,0.2129
11179.00,0.2130
11178.00,0.2131
11177.00,0.2131
11176.00,0.2132
11175.00,0.2132
11174.00,0.2132
11173.00,0.2131
11172.00,0.2129
11171.00,0.2127
11170.00,0.2126
11169.00,0.2128
11168.00,0.2130
11167.00,0.2132
11166.00,0.2132
11165.00,0.2131
11164.00,0.2130
11163.00,0.2129
11162.00,0.2129
11161.00,0.2130
11160.00,0.2131
11159.00,0.2131
11158.00,0.2131
11157.00,0.2131
11156.00,0.2131
11155.00,0.2133
11154.00,0.2133
11153.00,0.2133
11152.00,0.2132
11151.00,0.2130
11150.00,0.2129
11149.00,0.2129
11148.00,0.2131
11147.00,0.2133
11146.00,0.2134
11145.00,0.2134
11144.00,0.2134
11143.00,0.2134
11142.00,0.2135
11141.00,0.2135
11140.00,0.2136
11139.00,0.2137
11138.00,0.2137
11137.00,0.2137
11136.00,0.2137
11135.00,0.2137
11134.00,0.2136
11133.00,0.2134
11132.00,0.2133
11131.00,0.2132
11130.00,0.2131
11129.00,0.2132
11128.00,0.2132
11127.00,0.2132
11126.00,0.2133
11125.00,0.2133
11124.00,0.2134
11123.00,0.2136
11122.00,0.2138
11121.00,0.2139
11120.00,0.2140
11119.00,0.2139
11118.00,0.2139
11117.00,0.2139
11116.00,0.2140
11115.00,0.2142
11114.00,0.2143
11113.00,0.2143
11112.00,0.2142
11111.00,0.2139
11110.00,0.2137
11109.00,0.2135
11108.00,0.2133
11107.00,0.2133
11106.00,0.2133
11105.00,0.2134
11104.00,0.2133
11103.00,0.2133
11102.00,0.2133
11101.00,0.2132
11100.00,0.2132
11099.00,0.2133
11098.00,0.2134
11097.00,0.2135
11096.00,0.2137
11095.00,0.2139
11094.00,0.2141
11093.00,0.2141
11092.00,0.2139
11091.00,0.2137
11090.00,0.2135
11089.00,0.2134
11088.00,0.2135
11087.00,0.2137
11086.00,0.2138
11085.00,0.2138
11084.00,0.2136
11083.00,0.2134
11082.00,0.2132
11081.00,0.2132
11080.00,0.2132
11079.00,0.2131
11078.00,0.2130
11077.00,0.2129
11076.00,0.2128
11075.00,0.2127
11074.00,0.2128
11073.00,0.2130
11072.00,0.2131
11071.00,0.2131
11070.00,0.2130
11069.00,0.2128
11068.00,0.2127
11067.00,0.2128
11066.00,0.2129
11065.00,0.2132
11064.00,0.2135
11063.00,0.2137
11062.00,0.2137
11061.00,0.2136
11060.00,0.2136
11059.00,0.2136
11058.00,0.2137
11057.00,0.2138
11056.00,0.2140
11055.00,0.2142
11054.00,0.2143
11053.00,0.2142
11052.00,0.2140
11051.00,0.2138
11050.00,0.2136
11049.00,0.2134
11048.00,0.2134
11047.00,0.2135
11046.00,0.2136
11045.00,0.2138
11044.00,0.2138
11043.00,0.2139
11042.00,0.2138
11041.00,0.2139
11040.00,0.2139
11039.00,0.2139
11038.00,0.2139
11037.00,0.2139
11036.00,0.2138
11035.00,0.2138
11034.00,0.2138
11033.00,0.2138
11032.00,0.2139
11031.00,0.2139
11030.00,0.2138
11029.00,0.2137
11028.00,0.2136
11027.00,0.2136
11026.00,0.2136
11025.00,0.2136
11024.00,0.2136
11023.00,0.2135
11022.00,0.2133
11021.00,0.2131
11020.00,0.2130
11019.00,0.2129
11018.00,0.2129
11017.00,0.2129
11016.00,0.2129
11015.00,0.2130
11014.00,0.2131
11013.00,0.2133
11012.00,0.2135
11011.00,0.2137
11010.00,0.2139
11009.00,0.2140
11008.00,0.2140
11007.00,0.2140
11006.00,0.2139
11005.00,0.2139
11004.00,0.2139
11003.00,0.2140
11002.00,0.2140
11001.00,0.2140
11000.00,0.2139
10999.00,0.2138
10998.00,0.2136
10997.00,0.2136
10996.00,0.2135
10995.00,0.2135
10994.00,0.2135
10993.00,0.2133
10992.00,0.2131
10991.00,0.2129
10990.00,0.2128
10989.00,0.2128
10988.00,0.2128
10987.00,0.2128
10986.00,0.2127
10985.00,0.2126
10984.00,0.2126
10983.00,0.2127
10982.00,0.2128
10981.00,0.2129
10980.00,0.2130
10979.00,0.2128
10978.00,0.2127
10977.00,0.2127
10976.00,0.2128
10975.00,0.2129
10974.00,0.2131
10973.00,0.2132
10972.00,0.2133
10971.00,0.2133
10970.00,0.2134
10969.00,0.2137
10968.00,0.2139
10967.00,0.2141
10966.00,0.2142
10965.00,0.2142
10964.00,0.2142
10963.00,0.2141
10962.00,0.2141
10961.00,0.2141
10960.00,0.2140
10959.00,0.2139
10958.00,0.2138
10957.00,0.2137
10956.00,0.2137
10955.00,0.2137
10954.00,0.2137
10953.00,0.2136
10952.00,0.2136
10951.00,0.2136
10950.00,0.2137
10949.00,0.2138
10948.00,0.2139
10947.00,0.2140
10946.00,0.2139
10945.00,0.2138
10944.00,0.2137
10943.00,0.2136
10942.00,0.2137
10941.00,0.2138
10940.00,0.2139
10939.00,0.2139
10938.00,0.2137
10937.00,0.2135
10936.00,0.2134
10935.00,0.2133
10934.00,0.2134
10933.00,0.2137
10932.00,0.2140
10931.00,0.2142
10930.00,0.2141
10929.00,0.2139
10928.00,0.2136
10927.00,0.2133
10926.00,0.2133
10925.00,0.2134
10924.00,0.2137
10923.00,0.2139
10922.00,0.2140
10921.00,0.2139
10920.00,0.2136
10919.00,0.2133
10918.00,0.2131
10917.00,0.2130
10916.00,0.2132
10915.00,0.2134
10914.00,0.2137
10913.00,0.2139
10912.00,0.2138
10911.00,0.2136
10910.00,0.2134
10909.00,0.2133
10908.00,0.2133
10907.00,0.2135
10906.00,0.2137
10905.00,0.2137
10904.00,0.2136
10903.00,0.2134
10902.00,0.2133
10901.00,0.2134
10900.00,0.2135
10899.00,0.2136
10898.00,0.2135
10897.00,0.2132
10896.00,0.2130
10895.00,0.2130
10894.00,0.2133
10893.00,0.2138
10892.00,0.2141
10891.00,0.2141
10890.00,0.2138
10889.00,0.2133
10888.00,0.2129
10887.00,0.2129
10886.00,0.2132
10885.00,0.2135
10884.00,0.2137
10883.00,0.2137
10882.00,0.2136
10881.00,0.2135
10880.00,0.2135
10879.00,0.2134
10878.00,0.2134
10877.00,0.2134
10876.00,0.2134
10875.00,0.2135
10874.00,0.2136
10873.00,0.2137
10872.00,0.2137
10871.00,0.2134
10870.00,0.2130
10869.00,0.2128
10868.00,0.2128
10867.00,0.2130
10866.00,0.2132
10865.00,0.2132
10864.00,0.2131
10863.00,0.2128
10862.00,0.2127
10861.00,0.2128
10860.00,0.2130
10859.00,0.2133
10858.00,0.2135
10857.00,0.2136
10856.00,0.2134
10855.00,0.2132
10854.00,0.2130
10853.00,0.2128
10852.00,0.2128
10851.00,0.2128
10850.00,0.2128
10849.00,0.2128
10848.00,0.2127
10847.00,0.2126
10846.00,0.2126
10845.00,0.2127
10844.00,0.2128
10843.00,0.2131
10842.00,0.2133
10841.00,0.2135
10840.00,0.2136
10839.00,0.2136
10838.00,0.2137
10837.00,0.2136
10836.00,0.2133
10835.00,0.2131
10834.00,0.2129
10833.00,0.2128
10832.00,0.2128
10831.00,0.2128
10830.00,0.2128
10829.00,0.2126
10828.00,0.2123
10827.00,0.2121
10826.00,0.2121
10825.00,0.2123
10824.00,0.2125
10823.00,0.2127
10822.00,0.2127
10821.00,0.2126
10820.00,0.2126
10819.00,0.2127
10818.00,0.2129
10817.00,0.2131
10816.00,0.2131
10815.00,0.2130
10814.00,0.2129
10813.00,0.2128
10812.00,0.2128
10811.00,0.2129
10810.00,0.2130
10809.00,0.2131
10808.00,0.2131
10807.00,0.2131
10806.00,0.2132
10805.00,0.2133
10804.00,0.2135
10803.00,0.2136
10802.00,0.2137
10801.00,0.2137
10800.00,0.2136
10799.00,0.2135
10798.00,0.2134
10797.00,0.2135
10796.00,0.2136
10795.00,0.2137
10794.00,0.2137
10793.00,0.2135
10792.00,0.2133
10791.00,0.2130
10790.00,0.2128
10789.00,0.2128
10788.00,0.2129
10787.00,0.2130
10786.00,0.2129
10785.00,0.2127
10784.00,0.2125
10783.00,0.2123
10782.00,0.2122
10781.00,0.2122
10780.00,0.2122
10779.00,0.2122
10778.00,0.2122
10777.00,0.2123
10776.00,0.2125
10775.00,0.2128
10774.00,0.2130
10773.00,0.2132
10772.00,0.2133
10771.00,0.2134
10770.00,0.2134
10769.00,0.2135
10768.00,0.2136
10767.00,0.2137
10766.00,0.2136
10765.00,0.2134
10764.00,0.2131
10763.00,0.2129
10762.00,0.2127
10761.00,0.2125
10760.00,0.2123
10759.00,0.2122
10758.00,0.2122
10757.00,0.2122
10756.00,0.2123
10755.00,0.2124
10754.00,0.2124
10753.00,0.2123
10752.00,0.2122
10751.00,0.2123
10750.00,0.2125
10749.00,0.2128
10748.00,0.2130
10747.00,0.2132
10746.00,0.2132
10745.00,0.2132
10744.00,0.2131
10743.00,0.2132
10742.00,0.2133
10741.00,0.2134
10740.00,0.2135
10739.00,0.2135
10738.00,0.2134
10737.00,0.2133
10736.00,0.2132
10735.00,0.2132
10734.00,0.2132
10733.00,0.2133
10732.00,0.2133
10731.00,0.2133
10730.00,0.2133
10729.00,0.2133
10728.00,0.2133
10727.00,0.2133
10726.00,0.2132
10725.00,0.2130
10724.00,0.2129
10723.00,0.2127
10722.00,0.2127
10721.00,0.2127
10720.00,0.2128
10719.00,0.2128
10718.00,0.2129
10717.00,0.2128
10716.00,0.2126
10715.00,0.2124
10714.00,0.2121
10713.00,0.2119
10712.00,0.2119
10711.00,0.2122
10710.00,0.2125
10709.00,0.2129
10708.00,0.2130
10707.00,0.2129
10706.00,0.2127
10705.00,0.2125
10704.00,0.2127
10703.00,0.2130
10702.00,0.2135
10701.00,0.2139
10700.00,0.2139
10699.00,0.2136
10698.00,0.2133
10697.00,0.2130
10696.00,0.2129
10695.00,0.2129
10694.00,0.2131
10693.00,0.2132
10692.00,0.2132
10691.00,0.2131
10690.00,0.2131
10689.00,0.2131
10688.00,0.2130
10687.00,0.2128
10686.00,0.2127
10685.00,0.2125
10684.00,0.2123
10683.00,0.2123
10682.00,0.2122
10681.00,0.2123
10680.00,0.2122
10679.00,0.2122
10678.00,0.2123
10677.00,0.2124
10676.00,0.2125
10675.00,0.2128
10674.00,0.2129
10673.00,0.2130
10672.00,0.2130
10671.00,0.2130
10670.00,0.2130
10669.00,0.2131
10668.00,0.2132
10667.00,0.2132
10666.00,0.2131
10665.00,0.2129
10664.00,0.2127
10663.00,0.2126
10662.00,0.2127
10661.00,0.2129
10660.00,0.2132
10659.00,0.2134
10658.00,0.2134
10657.00,0.2133
10656.00,0.2131
10655.00,0.2130
10654.00,0.2130
10653.00,0.2131
10652.00,0.2133
10651.00,0.2134
10650.00,0.2135
10649.00,0.2134
10648.00,0.2134
10647.00,0.2135
10646.00,0.2137
10645.00,0.2139
10644.00,0.2140
10643.00,0.2140
10642.00,0.2139
10641.00,0.2137
10640.00,0.2136
10639.00,0.2135
10638.00,0.2135
10637.00,0.2135
10636.00,0.2135
10635.00,0.2135
10634.00,0.2135
10633.00,0.2134
10632.00,0.2133
10631.00,0.2132
10630.00,0.2132
10629.00,0.2133
10628.00,0.2133
10627.00,0.2134
10626.00,0.2135
10625.00,0.2135
10624.00,0.2136
10623.00,0.2135
10622.00,0.2134
10621.00,0.2132
10620.00,0.2130
10619.00,0.2131
10618.00,0.2133
10617.00,0.2138
10616.00,0.2142
10615.00,0.2144
10614.00,0.2143
10613.00,0.2140
10612.00,0.2137
10611.00,0.2137
10610.00,0.2139
10609.00,0.2142
10608.00,0.2143
10607.00,0.2142
10606.00,0.2139
10605.00,0.2135
10604.00,0.2133
10603.00,0.2134
10602.00,0.2136
10601.00,0.2137
10600.00,0.2137
10599.00,0.2136
10598.00,0.2137
10597.00,0.2139
10596.00,0.2143
10595.00,0.2146
10594.00,0.2147
10593.00,0.2145
10592.00,0.2141
10591.00,0.2138
10590.00,0.2137
10589.00,0.2140
10588.00,0.2143
10587.00,0.2145
10586.00,0.2144
10585.00,0.2141
10584.00,0.2138
10583.00,0.2137
10582.00,0.2139
10581.00,0.2142
10580.00,0.2146
10579.00,0.2148
10578.00,0.2150
10577.00,0.2150
10576.00,0.2150
10575.00,0.2149
10574.00,0.2148
10573.00,0.2148
10572.00,0.2146
10571.00,0.2145
10570.00,0.2144
10569.00,0.2143
10568.00,0.2143
10567.00,0.2143
10566.00,0.2144
10565.00,0.2145
10564.00,0.2146
10563.00,0.2147
10562.00,0.2148
10561.00,0.2149
10560.00,0.2149
10559.00,0.2149
10558.00,0.2149
10557.00,0.2149
10556.00,0.2149
10555.00,0.2149
10554.00,0.2149
10553.00,0.2148
10552.00,0.2148
10551.00,0.2147
10550.00,0.2147
10549.00,0.2147
10548.00,0.2147
10547.00,0.2148
10546.00,0.2150
10545.00,0.2151
10544.00,0.2150
10543.00,0.2148
10542.00,0.2146
10541.00,0.2145
10540.00,0.2145
10539.00,0.2148
10538.00,0.2150
10537.00,0.2151
10536.00,0.2149
10535.00,0.2146
10534.00,0.2143
10533.00,0.2142
10532.00,0.2144
10531.00,0.2146
10530.00,0.2147
10529.00,0.2147
10528.00,0.2146
10527.00,0.2146
10526.00,0.2147
10525.00,0.2149
10524.00,0.2152
10523.00,0.2154
10522.00,0.2155
10521.00,0.2156
10520.00,0.2157
10519.00,0.2158
10518.00,0.2160
10517.00,0.2160
10516.00,0.2159
10515.00,0.2157
10514.00,0.2157
10513.00,0.2158
10512.00,0.2160
10511.00,0.2161
10510.00,0.2162
10509.00,0.2162
10508.00,0.2162
10507.00,0.2164
10506.00,0.2166
10505.00,0.2167
10504.00,0.2167
10503.00,0.2166
10502.00,0.2163
10501.00,0.2162
10500.00,0.2161
10499.00,0.2160
10498.00,0.2160
10497.00,0.2159
10496.00,0.2157
10495.00,0.2156
10494.00,0.2156
10493.00,0.2157
10492.00,0.2158
10491.00,0.2159
10490.00,0.2161
10489.00,0.2163
10488.00,0.2165
10487.00,0.2166
10486.00,0.2166
10485.00,0.2165
10484.00,0.2163
10483.00,0.2164
10482.00,0.2166
10481.00,0.2170
10480.00,0.2174
10479.00,0.2176
10478.00,0.2175
10477.00,0.2174
10476.00,0.2173
10475.00,0.2174
10474.00,0.2177
10473.00,0.2181
10472.00,0.2182
10471.00,0.2181
10470.00,0.2178
10469.00,0.2174
10468.00,0.2171
10467.00,0.2170
10466.00,0.2169
10465.00,0.2169
10464.00,0.2169
10463.00,0.2169
10462.00,0.2171
10461.00,0.2172
10460.00,0.2174
10459.00,0.2174
10458.00,0.2173
10457.00,0.2173
10456.00,0.2174
10455.00,0.2176
10454.00,0.2178
10453.00,0.2179
10452.00,0.2178
10451.00,0.2175
10450.00,0.2173
10449.00,0.2173
10448.00,0.2175
10447.00,0.2179
10446.00,0.2183
10445.00,0.2185
10444.00,0.2186
10443.00,0.2184
10442.00,0.2183
10441.00,0.2182
10440.00,0.2181
10439.00,0.2182
10438.00,0.2182
10437.00,0.2182
10436.00,0.2181
10435.00,0.2180
10434.00,0.2179
10433.00,0.2179
10432.00,0.2180
10431.00,0.2181
10430.00,0.2181
10429.00,0.2182
10428.00,0.2182
10427.00,0.2182
10426.00,0.2182
10425.00,0.2182
10424.00,0.2181
10423.00,0.2180
10422.00,0.2179
10421.00,0.2179
10420.00,0.2178
10419.00,0.2177
10418.00,0.2175
10417.00,0.2173
10416.00,0.2172
10415.00,0.2173
10414.00,0.2176
10413.00,0.2179
10412.00,0.2180
10411.00,0.2181
10410.00,0.2181
10409.00,0.2181
10408.00,0.2182
10407.00,0.2185
10406.00,0.2187
10405.00,0.2188
10404.00,0.2187
10403.00,0.2185
10402.00,0.2183
10401.00,0.2182
10400.00,0.2182
10399.00,0.2182
10398.00,0.2183
10397.00,0.2184
10396.00,0.2185
10395.00,0.2186
10394.00,0.2188
10393.00,0.2189
10392.00,0.2191
10391.00,0.2194
10390.00,0.2196
10389.00,0.2197
10388.00,0.2198
10387.00,0.2198
10386.00,0.2197
10385.00,0.2197
10384.00,0.2197
10383.00,0.2197
10382.00,0.2196
10381.00,0.2195
10380.00,0.2194
10379.00,0.2192
10378.00,0.2191
10377.00,0.2191
10376.00,0.2190
10375.00,0.2190
10374.00,0.2190
10373.00,0.2190
10372.00,0.2191
10371.00,0.2192
10370.00,0.2192
10369.00,0.2192
10368.00,0.2192
10367.00,0.2193
10366.00,0.2194
10365.00,0.2196
10364.00,0.2199
10363.00,0.2202
10362.00,0.2203
10361.00,0.2203
10360.00,0.2202
10359.00,0.2201
10358.00,0.2200
10357.00,0.2200
10356.00,0.2202
10355.00,0.2203
10354.00,0.2204
10353.00,0.2205
10352.00,0.2205
10351.00,0.2205
10350.00,0.2205
10349.00,0.2206
10348.00,0.2208
10347.00,0.2209
10346.00,0.2210
10345.00,0.2210
10344.00,0.2209
10343.00,0.2208
10342.00,0.2206
10341.00,0.2204
10340.00,0.2202
10339.00,0.2202
10338.00,0.2203
10337.00,0.2205
10336.00,0.2206
10335.00,0.2206
10334.00,0.2206
10333.00,0.2206
10332.00,0.2207
10331.00,0.2210
10330.00,0.2212
10329.00,0.2214
10328.00,0.2213
10327.00,0.2213
10326.00,0.2212
10325.00,0.2213
10324.00,0.2215
10323.00,0.2217
10322.00,0.2217
10321.00,0.2216
10320.00,0.2215
10319.00,0.2213
10318.00,0.2212
10317.00,0.2212
10316.00,0.2212
10315.00,0.2212
10314.00,0.2211
10313.00,0.2210
10312.00,0.2210
10311.00,0.2210
10310.00,0.2210
10309.00,0.2211
10308.00,0.2211
10307.00,0.2212
10306.00,0.2213
10305.00,0.2214
10304.00,0.2213
10303.00,0.2213
10302.00,0.2212
10301.00,0.2213
10300.00,0.2215
10299.00,0.2216
10298.00,0.2217
10297.00,0.2218
10296.00,0.2218
10295.00,0.2219
10294.00,0.2220
10293.00,0.2222
10292.00,0.2224
10291.00,0.2225
10290.00,0.2225
10289.00,0.2225
10288.00,0.2224
10287.00,0.2223
10286.00,0.2222
10285.00,0.2221
10284.00,0.2221
10283.00,0.2220
10282.00,0.2221
10281.00,0.2221
10280.00,0.2221
10279.00,0.2222
10278.00,0.2223
10277.00,0.2225
10276.00,0.2227
10275.00,0.2229
10274.00,0.2229
10273.00,0.2229
10272.00,0.2227
10271.00,0.2226
10270.00,0.2226
10269.00,0.2225
10268.00,0.2225
10267.00,0.2223
10266.00,0.2222
10265.00,0.2221
10264.00,0.2222
10263.00,0.2224
10262.00,0.2226
10261.00,0.2228
10260.00,0.2228
10259.00,0.2228
10258.00,0.2227
10257.00,0.2228
10256.00,0.2229
10255.00,0.2231
10254.00,0.2233
10253.00,0.2233
10252.00,0.2232
10251.00,0.2231
10250.00,0.2231
10249.00,0.2231
10248.00,0.2233
10247.00,0.2234
10246.00,0.2234
10245.00,0.2232
10244.00,0.2231
10243.00,0.2230
10242.00,0.2230
10241.00,0.2231
10240.00,0.2233
10239.00,0.2234
10238.00,0.2233
10237.00,0.2230
10236.00,0.2228
10235.00,0.2227
10234.00,0.2226
10233.00,0.2226
10232.00,0.2227
10231.00,0.2227
10230.00,0.2228
10229.00,0.2229
10228.00,0.2230
10227.00,0.2231
10226.00,0.2233
10225.00,0.2235
10224.00,0.2236
10223.00,0.2238
10222.00,0.2239
10221.00,0.2239
10220.00,0.2238
10219.00,0.2237
10218.00,0.2236
10217.00,0.2235
10216.00,0.2235
10215.00,0.2235
10214.00,0.2234
10213.00,0.2234
10212.00,0.2234
10211.00,0.2235
10210.00,0.2236
10209.00,0.2237
10208.00,0.2238
10207.00,0.2239
10206.00,0.2240
10205.00,0.2240
10204.00,0.2240
10203.00,0.2241
10202.00,0.2242
10201.00,0.2243
10200.00,0.2244
10199.00,0.2244
10198.00,0.2244
10197.00,0.2243
10196.00,0.2243
10195.00,0.2243
10194.00,0.2243
10193.00,0.2243
10192.00,0.2243
10191.00,0.2242
10190.00,0.2241
10189.00,0.2241
10188.00,0.2241
10187.00,0.2241
10186.00,0.2241
10185.00,0.2241
10184.00,0.2241
10183.00,0.2242
10182.00,0.2242
10181.00,0.2243
10180.00,0.2244
10179.00,0.2244
10178.00,0.2243
10177.00,0.2243
10176.00,0.2243
10175.00,0.2244
10174.00,0.2245
10173.00,0.2245
10172.00,0.2245
10171.00,0.2245
10170.00,0.2245
10169.00,0.2246
10168.00,0.2247
10167.00,0.2246
10166.00,0.2245
10165.00,0.2244
10164.00,0.2242
10163.00,0.2241
10162.00,0.2242
10161.00,0.2243
10160.00,0.2245
10159.00,0.2247
10158.00,0.2248
10157.00,0.2249
10156.00,0.2248
10155.00,0.2248
10154.00,0.2248
10153.00,0.2249
10152.00,0.2250
10151.00,0.2250
10150.00,0.2249
10149.00,0.2248
10148.00,0.2248
10147.00,0.2248
10146.00,0.2249
10145.00,0.2251
10144.00,0.2253
10143.00,0.2254
10142.00,0.2255
10141.00,0.2255
10140.00,0.2255
10139.00,0.2255
10138.00,0.2256
10137.00,0.2256
10136.00,0.2257
10135.00,0.2257
10134.00,0.2256
10133.00,0.2255
10132.00,0.2254
10131.00,0.2255
10130.00,0.2255
10129.00,0.2256
10128.00,0.2256
10127.00,0.2256
10126.00,0.2256
10125.00,0.2255
10124.00,0.2255
10123.00,0.2255
10122.00,0.2254
10121.00,0.2255
10120.00,0.2255
10119.00,0.2255
10118.00,0.2254
10117.00,0.2253
10116.00,0.2252
10115.00,0.2251
10114.00,0.2251
10113.00,0.2251
10112.00,0.2251
10111.00,0.2251
10110.00,0.2250
10109.00,0.2250
10108.00,0.2250
10107.00,0.2250
10106.00,0.2250
10105.00,0.2250
10104.00,0.2250
10103.00,0.2250
10102.00,0.2250
10101.00,0.2251
10100.00,0.2252
10099.00,0.2252
10098.00,0.2253
10097.00,0.2254
10096.00,0.2255
10095.00,0.2256
10094.00,0.2256
10093.00,0.2257
10092.00,0.2257
10091.00,0.2257
10090.00,0.2257
10089.00,0.2257
10088.00,0.2257
10087.00,0.2258
10086.00,0.2259
10085.00,0.2259
10084.00,0.2259
10083.00,0.2258
10082.00,0.2257
10081.00,0.2257
10080.00,0.2256
10079.00,0.2256
10078.00,0.2256
10077.00,0.2255
10076.00,0.2254
10075.00,0.2254
10074.00,0.2254
10073.00,0.2254
10072.00,0.2255
10071.00,0.2255
10070.00,0.2255
10069.00,0.2256
10068.00,0.2257
10067.00,0.2258
10066.00,0.2259
10065.00,0.2260
10064.00,0.2259
10063.00,0.2257
10062.00,0.2255
10061.00,0.2254
10060.00,0.2254
10059.00,0.2254
10058.00,0.2254
10057.00,0.2254
10056.00,0.2252
10055.00,0.2251
10054.00,0.2249
10053.00,0.2249
10052.00,0.2250
10051.00,0.2252
10050.00,0.2254
10049.00,0.2256
10048.00,0.2256
10047.00,0.2256
10046.00,0.2257
10045.00,0.2259
10044.00,0.2261
10043.00,0.2262
10042.00,0.2261
10041.00,0.2259
10040.00,0.2256
10039.00,0.2254
10038.00,0.2254
10037.00,0.2254
10036.00,0.2253
10035.00,0.2252
10034.00,0.2251
10033.00,0.2250
10032.00,0.2251
10031.00,0.2252
10030.00,0.2254
10029.00,0.2256
10028.00,0.2258
10027.00,0.2259
10026.00,0.2259
10025.00,0.2258
10024.00,0.2257
10023.00,0.2255
10022.00,0.2255
10021.00,0.2256
10020.00,0.2257
10019.00,0.2257
10018.00,0.2256
10017.00,0.2254
10016.00,0.2252
10015.00,0.2252
10014.00,0.2254
10013.00,0.2256
10012.00,0.2256
10011.00,0.2256
10010.00,0.2255
10009.00,0.2254
10008.00,0.2253
10007.00,0.2254
10006.00,0.2254
10005.00,0.2254
10004.00,0.2253
10003.00,0.2252
10002.00,0.2252
10001.00,0.2253
10000.00,0.2253
9999.00,0.2254
9998.00,0.2254
9997.00,0.2253
9996.00,0.2252
9995.00,0.2251
9994.00,0.2250
9993.00,0.2249
9992.00,0.2248
9991.00,0.2247
9990.00,0.2246
9989.00,0.2246
9988.00,0.2246
9987.00,0.2247
9986.00,0.2248
9985.00,0.2250
9984.00,0.2251
9983.00,0.2251
9982.00,0.2251
9981.00,0.2251
9980.00,0.2251
9979.00,0.2251
9978.00,0.2250
9977.00,0.2249
9976.00,0.2247
9975.00,0.2245
9974.00,0.2245
9973.00,0.2246
9972.00,0.2248
9971.00,0.2250
9970.00,0.2251
9969.00,0.2251
9968.00,0.2251
9967.00,0.2251
9966.00,0.2252
9965.00,0.2254
9964.00,0.2255
9963.00,0.2255
9962.00,0.2254
9961.00,0.2253
9960.00,0.2252
9959.00,0.2252
9958.00,0.2252
9957.00,0.2252
9956.00,0.2252
9955.00,0.2252
9954.00,0.2251
9953.00,0.2251
9952.00,0.2251
9951.00,0.2252
9950.00,0.2254
9949.00,0.2256
9948.00,0.2257
9947.00,0.2256
9946.00,0.2255
9945.00,0.2253
9944.00,0.2252
9943.00,0.2252
9942.00,0.2252
9941.00,0.2251
9940.00,0.2251
9939.00,0.2250
9938.00,0.2249
9937.00,0.2248
9936.00,0.2249
9935.00,0.2250
9934.00,0.2252
9933.00,0.2254
9932.00,0.2255
9931.00,0.2254
9930.00,0.2254
9929.00,0.2252
9928.00,0.2251
9927.00,0.2251
9926.00,0.2251
9925.00,0.2251
9924.00,0.2250
9923.00,0.2249
9922.00,0.2248
9921.00,0.2248
9920.00,0.2249
9919.00,0.2251
9918.00,0.2252
9917.00,0.2252
9916.00,0.2251
9915.00,0.2249
9914.00,0.2248
9913.00,0.2249
9912.00,0.2251
9911.00,0.2252
9910.00,0.2251
9909.00,0.2248
9908.00,0.2244
9907.00,0.2243
9906.00,0.2244
9905.00,0.2247
9904.00,0.2250
9903.00,0.2251
9902.00,0.2250
9901.00,0.2248
9900.00,0.2249
9899.00,0.2251
9898.00,0.2253
9897.00,0.2255
9896.00,0.2254
9895.00,0.2252
9894.00,0.2249
9893.00,0.2247
9892.00,0.2247
9891.00,0.2247
9890.00,0.2247
9889.00,0.2246
9888.00,0.2245
9887.00,0.2244
9886.00,0.2244
9885.00,0.2245
9884.00,0.2248
9883.00,0.2251
9882.00,0.2253
9881.00,0.2253
9880.00,0.2252
9879.00,0.2251
9878.00,0.2250
9877.00,0.2251
9876.00,0.2253
9875.00,0.2254
9874.00,0.2254
9873.00,0.2253
9872.00,0.2251
9871.00,0.2250
9870.00,0.2250
9869.00,0.2251
9868.00,0.2252
9867.00,0.2252
9866.00,0.2251
9865.00,0.2249
9864.00,0.2247
9863.00,0.2246
9862.00,0.2246
9861.00,0.2247
9860.00,0.2248
9859.00,0.2248
9858.00,0.2247
9857.00,0.2245
9856.00,0.2244
9855.00,0.2243
9854.00,0.2244
9853.00,0.2246
9852.00,0.2247
9851.00,0.2247
9850.00,0.2246
9849.00,0.2245
9848.00,0.2244
9847.00,0.2245
9846.00,0.2246
9845.00,0.2247
9844.00,0.2246
9843.00,0.2245
9842.00,0.2243
9841.00,0.2243
9840.00,0.2243
9839.00,0.2245
9838.00,0.2246
9837.00,0.2247
9836.00,0.2247
9835.00,0.2246
9834.00,0.2246
9833.00,0.2246
9832.00,0.2247
9831.00,0.2247
9830.00,0.2246
9829.00,0.2245
9828.00,0.2244
9827.00,0.2243
9826.00,0.2244
9825.00,0.2244
9824.00,0.2245
9823.00,0.2245
9822.00,0.2245
9821.00,0.2246
9820.00,0.2247
9819.00,0.2248
9818.00,0.2248
9817.00,0.2246
9816.00,0.2243
9815.00,0.2241
9814.00,0.2240
9813.00,0.2241
9812.00,0.2242
9811.00,0.2242
9810.00,0.2240
9809.00,0.2238
9808.00,0.2237
9807.00,0.2237
9806.00,0.2239
9805.00,0.2242
9804.00,0.2243
9803.00,0.2243
9802.00,0.2243
9801.00,0.2243
9800.00,0.2243
9799.00,0.2243
9798.00,0.2243
9797.00,0.2243
9796.00,0.2243
9795.00,0.2243
9794.00,0.2243
9793.00,0.2243
9792.00,0.2242
9791.00,0.2240
9790.00,0.2239
9789.00,0.2239
9788.00,0.2240
9787.00,0.2241
9786.00,0.2241
9785.00,0.2241
9784.00,0.2241
9783.00,0.2240
9782.00,0.2240
9781.00,0.2241
9780.00,0.2242
9779.00,0.2243
9778.00,0.2243
9777.00,0.2242
9776.00,0.2242
9775.00,0.2241
9774.00,0.2240
9773.00,0.2239
9772.00,0.2238
9771.00,0.2238
9770.00,0.2238
9769.00,0.2239
9768.00,0.2239
9767.00,0.2239
9766.00,0.2239
9765.00,0.2238
9764.00,0.2238
9763.00,0.2238
9762.00,0.2237
9761.00,0.2236
9760.00,0.2235
9759.00,0.2234
9758.00,0.2234
9757.00,0.2234
9756.00,0.2235
9755.00,0.2235
9754.00,0.2235
9753.00,0.2235
9752.00,0.2236
9751.00,0.2236
9750.00,0.2237
9749.00,0.2237
9748.00,0.2237
9747.00,0.2237
9746.00,0.2237
9745.00,0.2237
9744.00,0.2236
9743.00,0.2235
9742.00,0.2234
9741.00,0.2234
9740.00,0.2234
9739.00,0.2234
9738.00,0.2234
9737.00,0.2234
9736.00,0.2233
9735.00,0.2231
9734.00,0.2231
9733.00,0.2230
9732.00,0.2230
9731.00,0.2230
9730.00,0.2230
9729.00,0.2229
9728.00,0.2229
9727.00,0.2229
9726.00,0.2230
9725.00,0.2231
9724.00,0.2231
9723.00,0.2231
9722.00,0.2231
9721.00,0.2232
9720.00,0.2232
9719.00,0.2233
9718.00,0.2232
9717.00,0.2230
9716.00,0.2228
9715.00,0.2227
9714.00,0.2227
9713.00,0.2228
9712.00,0.2230
9711.00,0.2231
9710.00,0.2231
9709.00,0.2230
9708.00,0.2229
9707.00,0.2230
9706.00,0.2231
9705.00,0.2233
9704.00,0.2233
9703.00,0.2233
9702.00,0.2232
9701.00,0.2232
9700.00,0.2232
9699.00,0.2232
9698.00,0.2232
9697.00,0.2232
9696.00,0.2232
9695.00,0.2232
9694.00,0.2233
9693.00,0.2233
9692.00,0.2233
9691.00,0.2231
9690.00,0.2230
9689.00,0.2230
9688.00,0.2230
9687.00,0.2231
9686.00,0.2230
9685.00,0.2229
9684.00,0.2228
9683.00,0.2227
9682.00,0.2227
9681.00,0.2228
9680.00,0.2228
9679.00,0.2228
9678.00,0.2227
9677.00,0.2226
9676.00,0.2227
9675.00,0.2227
9674.00,0.2227
9673.00,0.2226
9672.00,0.2225
9671.00,0.2225
9670.00,0.2225
9669.00,0.2226
9668.00,0.2227
9667.00,0.2227
9666.00,0.2228
9665.00,0.2228
9664.00,0.2230
9663.00,0.2231
9662.00,0.2232
9661.00,0.2231
9660.00,0.2229
9659.00,0.2228
9658.00,0.2227
9657.00,0.2226
9656.00,0.2226
9655.00,0.2225
9654.00,0.2224
9653.00,0.2222
9652.00,0.2220
9651.00,0.2220
9650.00,0.2221
9649.00,0.2222
9648.00,0.2223
9647.00,0.2224
9646.00,0.2223
9645.00,0.2221
9644.00,0.2220
9643.00,0.2220
9642.00,0.2220
9641.00,0.2220
9640.00,0.2220
9639.00,0.2220
9638.00,0.2219
9637.00,0.2219
9636.00,0.2219
9635.00,0.2218
9634.00,0.2218
9633.00,0.2218
9632.00,0.2217
9631.00,0.2216
9630.00,0.2216
9629.00,0.2217
9628.00,0.2218
9627.00,0.2219
9626.00,0.2219
9625.00,0.2220
9624.00,0.2221
9623.00,0.2223
9622.00,0.2224
9621.00,0.2225
9620.00,0.2225
9619.00,0.2223
9618.00,0.2221
9617.00,0.2220
9616.00,0.2220
9615.00,0.2220
9614.00,0.2219
9613.00,0.2217
9612.00,0.2215
9611.00,0.2214
9610.00,0.2215
9609.00,0.2215
9608.00,0.2215
9607.00,0.2215
9606.00,0.2213
9605.00,0.2213
9604.00,0.2213
9603.00,0.2213
9602.00,0.2214
9601.00,0.2214
9600.00,0.2213
9599.00,0.2212
9598.00,0.2212
9597.00,0.2212
9596.00,0.2213
9595.00,0.2214
9594.00,0.2215
9593.00,0.2215
9592.00,0.2215
9591.00,0.2215
9590.00,0.2215
9589.00,0.2214
9588.00,0.2214
9587.00,0.2214
9586.00,0.2215
9585.00,0.2215
9584.00,0.2215
9583.00,0.2215
9582.00,0.2214
9581.00,0.2214
9580.00,0.2215
9579.00,0.2217
9578.00,0.2218
9577.00,0.2218
9576.00,0.2217
9575.00,0.2216
9574.00,0.2215
9573.00,0.2215
9572.00,0.2216
9571.00,0.2217
9570.00,0.2216
9569.00,0.2214
9568.00,0.2213
9567.00,0.2212
9566.00,0.2212
9565.00,0.2212
9564.00,0.2212
9563.00,0.2211
9562.00,0.2209
9561.00,0.2208
9560.00,0.2208
9559.00,0.2209
9558.00,0.2210
9557.00,0.2211
9556.00,0.2211
9555.00,0.2211
9554.00,0.2210
9553.00,0.2210
9552.00,0.2211
9551.00,0.2211
9550.00,0.2211
9549.00,0.2212
9548.00,0.2212
9547.00,0.2213
9546.00,0.2212
9545.00,0.2211
9544.00,0.2210
9543.00,0.2209
9542.00,0.2209
9541.00,0.2210
9540.00,0.2209
9539.00,0.2208
9538.00,0.2207
9537.00,0.2205
9536.00,0.2205
9535.00,0.2206
9534.00,0.2206
9533.00,0.2207
9532.00,0.2206
9531.00,0.2205
9530.00,0.2205
9529.00,0.2205
9528.00,0.2207
9527.00,0.2208
9526.00,0.2209
9525.00,0.2209
9524.00,0.2209
9523.00,0.2209
9522.00,0.2210
9521.00,0.2211
9520.00,0.2212
9519.00,0.2211
9518.00,0.2210
9517.00,0.2209
9516.00,0.2208
9515.00,0.2208
9514.00,0.2208
9513.00,0.2208
9512.00,0.2207
9511.00,0.2205
9510.00,0.2203
9509.00,0.2201
9508.00,0.2201
9507.00,0.2201
9506.00,0.2202
9505.00,0.2202
9504.00,0.2202
9503.00,0.2202
9502.00,0.2203
9501.00,0.2204
9500.00,0.2206
9499.00,0.2206
9498.00,0.2207
9497.00,0.2208
9496.00,0.2208
9495.00,0.2208
9494.00,0.2206
9493.00,0.2205
9492.00,0.2203
9491.00,0.2202
9490.00,0.2202
9489.00,0.2203
9488.00,0.2204
9487.00,0.2204
9486.00,0.2203
9485.00,0.2202
9484.00,0.2202
9483.00,0.2203
9482.00,0.2203
9481.00,0.2202
9480.00,0.2201
9479.00,0.2201
9478.00,0.2202
9477.00,0.2203
9476.00,0.2204
9475.00,0.2203
9474.00,0.2203
9473.00,0.2202
9472.00,0.2202
9471.00,0.2203
9470.00,0.2203
9469.00,0.2202
9468.00,0.2201
9467.00,0.2199
9466.00,0.2198
9465.00,0.2198
9464.00,0.2198
9463.00,0.2199
9462.00,0.2199
9461.00,0.2199
9460.00,0.2200
9459.00,0.2200
9458.00,0.2200
9457.00,0.2201
9456.00,0.2201
9455.00,0.2201
9454.00,0.2201
9453.00,0.2201
9452.00,0.2202
9451.00,0.2203
9450.00,0.2203
9449.00,0.2203
9448.00,0.2202
9447.00,0.2201
9446.00,0.2201
9445.00,0.2201
9444.00,0.2201
9443.00,0.2201
9442.00,0.2201
9441.00,0.2200
9440.00,0.2200
9439.00,0.2199
9438.00,0.2200
9437.00,0.2201
9436.00,0.2201
9435.00,0.2202
9434.00,0.2201
9433.00,0.2199
9432.00,0.2197
9431.00,0.2196
9430.00,0.2196
9429.00,0.2197
9428.00,0.2198
9427.00,0.2197
9426.00,0.2196
9425.00,0.2194
9424.00,0.2192
9423.00,0.2191
9422.00,0.2191
9421.00,0.2191
9420.00,0.2191
9419.00,0.2191
9418.00,0.2191
9417.00,0.2191
9416.00,0.2192
9415.00,0.2192
9414.00,0.2193
9413.00,0.2194
9412.00,0.2195
9411.00,0.2195
9410.00,0.2194
9409.00,0.2193
9408.00,0.2192
9407.00,0.2191
9406.00,0.2191
9405.00,0.2191
9404.00,0.2191
9403.00,0.2192
9402.00,0.2193
9401.00,0.2193
9400.00,0.2194
9399.00,0.2194
9398.00,0.2193
9397.00,0.2193
9396.00,0.2194
9395.00,0.2196
9394.00,0.2197
9393.00,0.2199
9392.00,0.2198
9391.00,0.2197
9390.00,0.2196
9389.00,0.2195
9388.00,0.2195
9387.00,0.2195
9386.00,0.2195
9385.00,0.2194
9384.00,0.2192
9383.00,0.2191
9382.00,0.2190
9381.00,0.2190
9380.00,0.2191
9379.00,0.2192
9378.00,0.2192
9377.00,0.2192
9376.00,0.2191
9375.00,0.2190
9374.00,0.2190
9373.00,0.2189
9372.00,0.2189
9371.00,0.2188
9370.00,0.2187
9369.00,0.2187
9368.00,0.2188
9367.00,0.2188
9366.00,0.2187
9365.00,0.2186
9364.00,0.2185
9363.00,0.2184
9362.00,0.2183
9361.00,0.2183
9360.00,0.2183
9359.00,0.2182
9358.00,0.2181
9357.00,0.2181
9356.00,0.2182
9355.00,0.2183
9354.00,0.2184
9353.00,0.2185
9352.00,0.2185
9351.00,0.2185
9350.00,0.2185
9349.00,0.2185
9348.00,0.2185
9347.00,0.2185
9346.00,0.2185
9345.00,0.2185
9344.00,0.2185
9343.00,0.2185
9342.00,0.2185
9341.00,0.2184
9340.00,0.2184
9339.00,0.2184
9338.00,0.2183
9337.00,0.2183
9336.00,0.2183
9335.00,0.2182
9334.00,0.2182
9333.00,0.2182
9332.00,0.2182
9331.00,0.2182
9330.00,0.2182
9329.00,0.2183
9328.00,0.2184
9327.00,0.2185
9326.00,0.2185
9325.00,0.2184
9324.00,0.2184
9323.00,0.2185
9322.00,0.2186
9321.00,0.2186
9320.00,0.2186
9319.00,0.2185
9318.00,0.2185
9317.00,0.2185
9316.00,0.2186
9315.00,0.2187
9314.00,0.2187
9313.00,0.2188
9312.00,0.2189
9311.00,0.2190
9310.00,0.2190
9309.00,0.2190
9308.00,0.2189
9307.00,0.2187
9306.00,0.2186
9305.00,0.2185
9304.00,0.2184
9303.00,0.2184
9302.00,0.2183
9301.00,0.2182
9300.00,0.2181
9299.00,0.2180
9298.00,0.2181
9297.00,0.2181
9296.00,0.2182
9295.00,0.2181
9294.00,0.2181
9293.00,0.2180
9292.00,0.2178
9291.00,0.2178
9290.00,0.2177
9289.00,0.2177
9288.00,0.2177
9287.00,0.2178
9286.00,0.2179
9285.00,0.2179
9284.00,0.2179
9283.00,0.2178
9282.00,0.2178
9281.00,0.2178
9280.00,0.2180
9279.00,0.2181
9278.00,0.2181
9277.00,0.2180
9276.00,0.2179
9275.00,0.2179
9274.00,0.2179
9273.00,0.2181
9272.00,0.2181
9271.00,0.2181
9270.00,0.2179
9269.00,0.2176
9268.00,0.2174
9267.00,0.2174
9266.00,0.2175
9265.00,0.2176
9264.00,0.2176
9263.00,0.2176
9262.00,0.2175
9261.00,0.2174
9260.00,0.2174
9259.00,0.2174
9258.00,0.2174
9257.00,0.2173
9256.00,0.2172
9255.00,0.2171
9254.00,0.2170
9253.00,0.2170
9252.00,0.2172
9251.00,0.2174
9250.00,0.2176
9249.00,0.2178
9248.00,0.2179
9247.00,0.2179
9246.00,0.2179
9245.00,0.2179
9244.00,0.2179
9243.00,0.2178
9242.00,0.2177
9241.00,0.2177
9240.00,0.2176
9239.00,0.2176
9238.00,0.2175
9237.00,0.2175
9236.00,0.2174
9235.00,0.2174
9234.00,0.2175
9233.00,0.2175
9232.00,0.2175
9231.00,0.2176
9230.00,0.2176
9229.00,0.2178
9228.00,0.2179
9227.00,0.2179
9226.00,0.2179
9225.00,0.2179
9224.00,0.2178
9223.00,0.2178
9222.00,0.2177
9221.00,0.2176
9220.00,0.2173
9219.00,0.2171
9218.00,0.2170
9217.00,0.2171
9216.00,0.2172
9215.00,0.2173
9214.00,0.2173
9213.00,0.2173
9212.00,0.2173
9211.00,0.2173
9210.00,0.2173
9209.00,0.2173
9208.00,0.2173
9207.00,0.2174
9206.00,0.2174
9205.00,0.2174
9204.00,0.2173
9203.00,0.2173
9202.00,0.2173
9201.00,0.2174
9200.00,0.2174
9199.00,0.2173
9198.00,0.2171
9197.00,0.2169
9196.00,0.2168
9195.00,0.2167
9194.00,0.2168
9193.00,0.2169
9192.00,0.2169
9191.00,0.2170
9190.00,0.2170
9189.00,0.2171
9188.00,0.2172
9187.00,0.2173
9186.00,0.2173
9185.00,0.2172
9184.00,0.2171
9183.00,0.2171
9182.00,0.2170
9181.00,0.2169
9180.00,0.2169
9179.00,0.2168
9178.00,0.2168
9177.00,0.2168
9176.00,0.2168
9175.00,0.2167
9174.00,0.2168
9173.00,0.2169
9172.00,0.2170
9171.00,0.2171
9170.00,0.2171
9169.00,0.2171
9168.00,0.2170
9167.00,0.2170
9166.00,0.2171
9165.00,0.2171
9164.00,0.2171
9163.00,0.2170
9162.00,0.2170
9161.00,0.2169
9160.00,0.2170
9159.00,0.2169
9158.00,0.2169
9157.00,0.2169
9156.00,0.2168
9155.00,0.2169
9154.00,0.2169
9153.00,0.2169
9152.00,0.2169
9151.00,0.2169
9150.00,0.2170
9149.00,0.2171
9148.00,0.2171
9147.00,0.2170
9146.00,0.2170
9145.00,0.2169
9144.00,0.2169
9143.00,0.2169
9142.00,0.2168
9141.00,0.2167
9140.00,0.2165
9139.00,0.2164
9138.00,0.2165
9137.00,0.2165
9136.00,0.2166
9135.00,0.2166
9134.00,0.2165
9133.00,0.2164
9132.00,0.2164
9131.00,0.2164
9130.00,0.2165
9129.00,0.2165
9128.00,0.2165
9127.00,0.2164
9126.00,0.2162
9125.00,0.2161
9124.00,0.2162
9123.00,0.2163
9122.00,0.2165
9121.00,0.2165
9120.00,0.2165
9119.00,0.2165
9118.00,0.2164
9117.00,0.2164
9116.00,0.2163
9115.00,0.2163
9114.00,0.2163
9113.00,0.2162
9112.00,0.2161
9111.00,0.2161
9110.00,0.2161
9109.00,0.2161
9108.00,0.2162
9107.00,0.2163
9106.00,0.2163
9105.00,0.2163
9104.00,0.2162
9103.00,0.2162
9102.00,0.2161
9101.00,0.2160
9100.00,0.2159
9099.00,0.2159
9098.00,0.2159
9097.00,0.2159
9096.00,0.2160
9095.00,0.2161
9094.00,0.2161
9093.00,0.2161
9092.00,0.2160
9091.00,0.2160
9090.00,0.2159
9089.00,0.2159
9088.00,0.2159
9087.00,0.2159
9086.00,0.2159
9085.00,0.2159
9084.00,0.2158
9083.00,0.2157
9082.00,0.2157
9081.00,0.2158
9080.00,0.2158
9079.00,0.2159
9078.00,0.2158
9077.00,0.2158
9076.00,0.2157
9075.00,0.2157
9074.00,0.2157
9073.00,0.2157
9072.00,0.2158
9071.00,0.2157
9070.00,0.2157
9069.00,0.2156
9068.00,0.2157
9067.00,0.2158
9066.00,0.2159
9065.00,0.2160
9064.00,0.2160
9063.00,0.2160
9062.00,0.2160
9061.00,0.2161
9060.00,0.2162
9059.00,0.2162
9058.00,0.2161
9057.00,0.2159
9056.00,0.2158
9055.00,0.2158
9054.00,0.2158
9053.00,0.2158
9052.00,0.2158
9051.00,0.2158
9050.00,0.2159
9049.00,0.2159
9048.00,0.2159
9047.00,0.2159
9046.00,0.2159
9045.00,0.2159
9044.00,0.2159
9043.00,0.2159
9042.00,0.2158
9041.00,0.2157
9040.00,0.2157
9039.00,0.2158
9038.00,0.2160
9037.00,0.2161
9036.00,0.2161
9035.00,0.2161
9034.00,0.2160
9033.00,0.2160
9032.00,0.2160
9031.00,0.2161
9030.00,0.2160
9029.00,0.2160
9028.00,0.2159
9027.00,0.2158
9026.00,0.2158
9025.00,0.2158
9024.00,0.2159
9023.00,0.2160
9022.00,0.2160
9021.00,0.2160
9020.00,0.2159
9019.00,0.2159
9018.00,0.2158
9017.00,0.2158
9016.00,0.2158
9015.00,0.2158
9014.00,0.2158
9013.00,0.2157
9012.00,0.2157
9011.00,0.2156
9010.00,0.2155
9009.00,0.2155
9008.00,0.2155
9007.00,0.2155
9006.00,0.2154
9005.00,0.2154
9004.00,0.2154
9003.00,0.2155
9002.00,0.2156
9001.00,0.2155
9000.00,0.2155
8999.00,0.2154
8998.00,0.2154
8997.00,0.2155
8996.00,0.2156
8995.00,0.2156
8994.00,0.2155
8993.00,0.2153
8992.00,0.2152
8991.00,0.2153
8990.00,0.2154
8989.00,0.2155
8988.00,0.2155
8987.00,0.2155
8986.00,0.2154
8985.00,0.2153
8984.00,0.2153
8983.00,0.2152
8982.00,0.2152
8981.00,0.2152
8980.00,0.2151
8979.00,0.2151
8978.00,0.2151
8977.00,0.2150
8976.00,0.2151
8975.00,0.2151
8974.00,0.2152
8973.00,0.2152
8972.00,0.2153
8971.00,0.2154
8970.00,0.2154
8969.00,0.2154
8968.00,0.2153
8967.00,0.2153
8966.00,0.2152
8965.00,0.2152
8964.00,0.2152
8963.00,0.2152
8962.00,0.2152
8961.00,0.2151
8960.00,0.2150
8959.00,0.2150
8958.00,0.2150
8957.00,0.2151
8956.00,0.2152
8955.00,0.2151
8954.00,0.2151
8953.00,0.2151
8952.00,0.2151
8951.00,0.2152
8950.00,0.2153
8949.00,0.2153
8948.00,0.2152
8947.00,0.2150
8946.00,0.2150
8945.00,0.2150
8944.00,0.2151
8943.00,0.2151
8942.00,0.2151
8941.00,0.2150
8940.00,0.2149
8939.00,0.2148
8938.00,0.2149
8937.00,0.2150
8936.00,0.2151
8935.00,0.2151
8934.00,0.2150
8933.00,0.2150
8932.00,0.2150
8931.00,0.2150
8930.00,0.2150
8929.00,0.2150
8928.00,0.2150
8927.00,0.2150
8926.00,0.2150
8925.00,0.2150
8924.00,0.2149
8923.00,0.2148
8922.00,0.2148
8921.00,0.2148
8920.00,0.2148
8919.00,0.2149
8918.00,0.2150
8917.00,0.2151
8916.00,0.2152
8915.00,0.2152
8914.00,0.2153
8913.00,0.2153
8912.00,0.2154
8911.00,0.2154
8910.00,0.2153
8909.00,0.2152
8908.00,0.2151
8907.00,0.2150
8906.00,0.2150
8905.00,0.2150
8904.00,0.2149
8903.00,0.2149
8902.00,0.2149
8901.00,0.2149
8900.00,0.2149
8899.00,0.2149
8898.00,0.2149
8897.00,0.2148
8896.00,0.2148
8895.00,0.2149
8894.00,0.2150
8893.00,0.2152
8892.00,0.2153
8891.00,0.2153
8890.00,0.2152
8889.00,0.2152
8888.00,0.2152
8887.00,0.2152
8886.00,0.2153
8885.00,0.2154
8884.00,0.2154
8883.00,0.2154
8882.00,0.2153
8881.00,0.2153
8880.00,0.2153
8879.00,0.2155
8878.00,0.2156
8877.00,0.2156
8876.00,0.2155
8875.00,0.2154
8874.00,0.2154
8873.00,0.2154
8872.00,0.2154
8871.00,0.2154
8870.00,0.2154
8869.00,0.2153
8868.00,0.2153
8867.00,0.2154
8866.00,0.2154
8865.00,0.2155
8864.00,0.2155
8863.00,0.2155
8862.00,0.2154
8861.00,0.2153
8860.00,0.2153
8859.00,0.2154
8858.00,0.2154
8857.00,0.2155
8856.00,0.2154
8855.00,0.2154
8854.00,0.2154
8853.00,0.2155
8852.00,0.2157
8851.00,0.2158
8850.00,0.2159
8849.00,0.2159
8848.00,0.2158
8847.00,0.2159
8846.00,0.2159
8845.00,0.2160
8844.00,0.2160
8843.00,0.2160
8842.00,0.2161
8841.00,0.2161
8840.00,0.2161
8839.00,0.2161
8838.00,0.2160
8837.00,0.2160
8836.00,0.2160
8835.00,0.2160
8834.00,0.2160
8833.00,0.2159
8832.00,0.2158
8831.00,0.2159
8830.00,0.2160
8829.00,0.2162
8828.00,0.2162
8827.00,0.2162
8826.00,0.2162
8825.00,0.2163
8824.00,0.2164
8823.00,0.2164
8822.00,0.2165
8821.00,0.2165
8820.00,0.2165
8819.00,0.2165
8818.00,0.2166
8817.00,0.2166
8816.00,0.2167
8815.00,0.2167
8814.00,0.2168
8813.00,0.2168
8812.00,0.2167
8811.00,0.2167
8810.00,0.2166
8809.00,0.2166
8808.00,0.2166
8807.00,0.2167
8806.00,0.2167
8805.00,0.2168
8804.00,0.2168
8803.00,0.2169
8802.00,0.2170
8801.00,0.2170
8800.00,0.2170
8799.00,0.2171
8798.00,0.2171
8797.00,0.2171
8796.00,0.2171
8795.00,0.2172
8794.00,0.2172
8793.00,0.2172
8792.00,0.2173
8791.00,0.2173
8790.00,0.2173
8789.00,0.2173
8788.00,0.2173
8787.00,0.2173
8786.00,0.2173
8785.00,0.2174
8784.00,0.2174
8783.00,0.2174
8782.00,0.2175
8781.00,0.2176
8780.00,0.2177
8779.00,0.2178
8778.00,0.2179
8777.00,0.2180
8776.00,0.2179
8775.00,0.2180
8774.00,0.2180
8773.00,0.2181
8772.00,0.2182
8771.00,0.2182
8770.00,0.2183
8769.00,0.2183
8768.00,0.2183
8767.00,0.2183
8766.00,0.2184
8765.00,0.2184
8764.00,0.2184
8763.00,0.2184
8762.00,0.2185
8761.00,0.2185
8760.00,0.2186
8759.00,0.2187
8758.00,0.2187
8757.00,0.2187
8756.00,0.2187
8755.00,0.2188
8754.00,0.2188
8753.00,0.2188
8752.00,0.2187
8751.00,0.2186
8750.00,0.2186
8749.00,0.2187
8748.00,0.2188
8747.00,0.2189
8746.00,0.2190
8745.00,0.2191
8744.00,0.2193
8743.00,0.2194
8742.00,0.2195
8741.00,0.2196
8740.00,0.2196
8739.00,0.2197
8738.00,0.2197
8737.00,0.2198
8736.00,0.2198
8735.00,0.2199
8734.00,0.2199
8733.00,0.2200
8732.00,0.2201
8731.00,0.2202
8730.00,0.2202
8729.00,0.2203
8728.00,0.2203
8727.00,0.2202
8726.00,0.2202
8725.00,0.2201
8724.00,0.2201
8723.00,0.2201
8722.00,0.2201
8721.00,0.2201
8720.00,0.2201
8719.00,0.2202
8718.00,0.2203
8717.00,0.2204
8716.00,0.2205
8715.00,0.2206
8714.00,0.2208
8713.00,0.2209
8712.00,0.2210
8711.00,0.2210
8710.00,0.2212
8709.00,0.2213
8708.00,0.2215
8707.00,0.2216
8706.00,0.2215
8705.00,0.2215
8704.00,0.2216
8703.00,0.2217
8702.00,0.2218
8701.00,0.2219
8700.00,0.2218
8699.00,0.2218
8698.00,0.2218
8697.00,0.2219
8696.00,0.2220
8695.00,0.2220
8694.00,0.2221
8693.00,0.2221
8692.00,0.2221
8691.00,0.2223
8690.00,0.2224
8689.00,0.2225
8688.00,0.2226
8687.00,0.2227
8686.00,0.2227
8685.00,0.2228
8684.00,0.2230
8683.00,0.2231
8682.00,0.2232
8681.00,0.2233
8680.00,0.2233
8679.00,0.2234
8678.00,0.2234
8677.00,0.2236
8676.00,0.2237
8675.00,0.2237
8674.00,0.2237
8673.00,0.2236
8672.00,0.2236
8671.00,0.2237
8670.00,0.2238
8669.00,0.2239
8668.00,0.2240
8667.00,0.2241
8666.00,0.2242
8665.00,0.2243
8664.00,0.2245
8663.00,0.2246
8662.00,0.2247
8661.00,0.2247
8660.00,0.2247
8659.00,0.2246
8658.00,0.2246
8657.00,0.2247
8656.00,0.2249
8655.00,0.2251
8654.00,0.2252
8653.00,0.2253
8652.00,0.2254
8651.00,0.2255
8650.00,0.2257
8649.00,0.2258
8648.00,0.2259
8647.00,0.2259
8646.00,0.2259
8645.00,0.2258
8644.00,0.2259
8643.00,0.2260
8642.00,0.2261
8641.00,0.2262
8640.00,0.2263
8639.00,0.2264
8638.00,0.2264
8637.00,0.2265
8636.00,0.2265
8635.00,0.2266
8634.00,0.2266
8633.00,0.2267
8632.00,0.2267
8631.00,0.2267
8630.00,0.2268
8629.00,0.2269
8628.00,0.2270
8627.00,0.2270
8626.00,0.2271
8625.00,0.2273
8624.00,0.2274
8623.00,0.2275
8622.00,0.2276
8621.00,0.2276
8620.00,0.2277
8619.00,0.2278
8618.00,0.2279
8617.00,0.2279
8616.00,0.2280
8615.00,0.2280
8614.00,0.2280
8613.00,0.2280
8612.00,0.2280
8611.00,0.2281
8610.00,0.2283
8609.00,0.2284
8608.00,0.2285
8607.00,0.2285
8606.00,0.2284
8605.00,0.2285
8604.00,0.2286
8603.00,0.2288
8602.00,0.2290
8601.00,0.2290
8600.00,0.2290
8599.00,0.2291
8598.00,0.2292
8597.00,0.2293
8596.00,0.2294
8595.00,0.2295
8594.00,0.2295
8593.00,0.2295
8592.00,0.2296
8591.00,0.2296
8590.00,0.2296
8589.00,0.2297
8588.00,0.2297
8587.00,0.2298
8586.00,0.2299
8585.00,0.2300
8584.00,0.2300
8583.00,0.2300
8582.00,0.2300
8581.00,0.2301
8580.00,0.2301
8579.00,0.2301
8578.00,0.2302
8577.00,0.2303
8576.00,0.2304
8575.00,0.2305
8574.00,0.2306
8573.00,0.2306
8572.00,0.2307
8571.00,0.2308
8570.00,0.2308
8569.00,0.2309
8568.00,0.2308
8567.00,0.2308
8566.00,0.2308
8565.00,0.2308
8564.00,0.2309
8563.00,0.2311
8562.00,0.2312
8561.00,0.2313
8560.00,0.2314
8559.00,0.2314
8558.00,0.2315
8557.00,0.2316
8556.00,0.2317
8555.00,0.2318
8554.00,0.2318
8553.00,0.2318
8552.00,0.2319
8551.00,0.2321
8550.00,0.2322
8549.00,0.2323
8548.00,0.2324
8547.00,0.2325
8546.00,0.2325
8545.00,0.2326
8544.00,0.2326
8543.00,0.2326
8542.00,0.2327
8541.00,0.2327
8540.00,0.2327
8539.00,0.2327
8538.00,0.2328
8537.00,0.2328
8536.00,0.2329
8535.00,0.2330
8534.00,0.2331
8533.00,0.2331
8532.00,0.2331
8531.00,0.2330
8530.00,0.2331
8529.00,0.2331
8528.00,0.2332
8527.00,0.2333
8526.00,0.2333
8525.00,0.2334
8524.00,0.2336
8523.00,0.2337
8522.00,0.2339
8521.00,0.2341
8520.00,0.2343
8519.00,0.2343
8518.00,0.2344
8517.00,0.2343
8516.00,0.2342
8515.00,0.2341
8514.00,0.2341
8513.00,0.2340
8512.00,0.2340
8511.00,0.2339
8510.00,0.2340
8509.00,0.2341
8508.00,0.2342
8507.00,0.2344
8506.00,0.2345
8505.00,0.2346
8504.00,0.2346
8503.00,0.2347
8502.00,0.2347
8501.00,0.2347
8500.00,0.2348
8499.00,0.2349
8498.00,0.2350
8497.00,0.2352
8496.00,0.2353
8495.00,0.2354
8494.00,0.2354
8493.00,0.2354
8492.00,0.2355
8491.00,0.2356
8490.00,0.2356
8489.00,0.2356
8488.00,0.2356
8487.00,0.2356
8486.00,0.2357
8485.00,0.2358
8484.00,0.2360
8483.00,0.2361
8482.00,0.2361
8481.00,0.2361
8480.00,0.2361
8479.00,0.2362
8478.00,0.2363
8477.00,0.2364
8476.00,0.2364
8475.00,0.2364
8474.00,0.2364
8473.00,0.2365
8472.00,0.2366
8471.00,0.2367
8470.00,0.2367
8469.00,0.2368
8468.00,0.2368
8467.00,0.2369
8466.00,0.2370
8465.00,0.2370
8464.00,0.2370
8463.00,0.2369
8462.00,0.2370
8461.00,0.2371
8460.00,0.2372
8459.00,0.2372
8458.00,0.2372
8457.00,0.2371
8456.00,0.2372
8455.00,0.2373
8454.00,0.2374
8453.00,0.2374
8452.00,0.2374
8451.00,0.2375
8450.00,0.2376
8449.00,0.2377
8448.00,0.2377
8447.00,0.2378
8446.00,0.2379
8445.00,0.2380
8444.00,0.2381
8443.00,0.2381
8442.00,0.2381
8441.00,0.2381
8440.00,0.2382
8439.00,0.2382
8438.00,0.2382
8437.00,0.2382
8436.00,0.2381
8435.00,0.2381
8434.00,0.2382
8433.00,0.2382
8432.00,0.2382
8431.00,0.2382
8430.00,0.2383
8429.00,0.2384
8428.00,0.2385
8427.00,0.2386
8426.00,0.2387
8425.00,0.2388
8424.00,0.2388
8423.00,0.2389
8422.00,0.2389
8421.00,0.2389
8420.00,0.2389
8419.00,0.2390
8418.00,0.2390
8417.00,0.2391
8416.00,0.2391
8415.00,0.2392
8414.00,0.2392
8413.00,0.2392
8412.00,0.2393
8411.00,0.2393
8410.00,0.2393
8409.00,0.2394
8408.00,0.2394
8407.00,0.2394
8406.00,0.2394
8405.00,0.2395
8404.00,0.2395
8403.00,0.2395
8402.00,0.2395
8401.00,0.2395
8400.00,0.2395
8399.00,0.2395
8398.00,0.2395
8397.00,0.2396
8396.00,0.2396
8395.00,0.2396
8394.00,0.2397
8393.00,0.2397
8392.00,0.2398
8391.00,0.2398
8390.00,0.2398
8389.00,0.2399
8388.00,0.2399
8387.00,0.2399
8386.00,0.2399
8385.00,0.2399
8384.00,0.2400
8383.00,0.2400
8382.00,0.2400
8381.00,0.2400
8380.00,0.2400
8379.00,0.2400
8378.00,0.2400
8377.00,0.2401
8376.00,0.2401
8375.00,0.2401
8374.00,0.2402
8373.00,0.2402
8372.00,0.2402
8371.00,0.2403
8370.00,0.2403
8369.00,0.2403
8368.00,0.2404
8367.00,0.2404
8366.00,0.2404
8365.00,0.2404
8364.00,0.2404
8363.00,0.2404
8362.00,0.2404
8361.00,0.2404
8360.00,0.2404
8359.00,0.2404
8358.00,0.2405
8357.00,0.2406
8356.00,0.2406
8355.00,0.2406
8354.00,0.2406
8353.00,0.2406
8352.00,0.2406
8351.00,0.2406
8350.00,0.2406
8349.00,0.2406
8348.00,0.2405
8347.00,0.2405
8346.00,0.2405
8345.00,0.2405
8344.00,0.2405
8343.00,0.2405
8342.00,0.2405
8341.00,0.2405
8340.00,0.2405
8339.00,0.2406
8338.00,0.2407
8337.00,0.2408
8336.00,0.2409
8335.00,0.2409
8334.00,0.2409
8333.00,0.2409
8332.00,0.2408
8331.00,0.2408
8330.00,0.2408
8329.00,0.2407
8328.00,0.2406
8327.00,0.2406
8326.00,0.2406
8325.00,0.2407
8324.00,0.2407
8323.00,0.2407
8322.00,0.2408
8321.00,0.2408
8320.00,0.2409
8319.00,0.2409
8318.00,0.2409
8317.00,0.2410
8316.00,0.2409
8315.00,0.2409
8314.00,0.2409
8313.00,0.2409
8312.00,0.2410
8311.00,0.2410
8310.00,0.2410
8309.00,0.2410
8308.00,0.2410
8307.00,0.2411
8306.00,0.2411
8305.00,0.2411
8304.00,0.2410
8303.00,0.2410
8302.00,0.2409
8301.00,0.2409
8300.00,0.2409
8299.00,0.2408
8298.00,0.2408
8297.00,0.2408
8296.00,0.2408
8295.00,0.2407
8294.00,0.2406
8293.00,0.2405
8292.00,0.2404
8291.00,0.2403
8290.00,0.2403
8289.00,0.2403
8288.00,0.2404
8287.00,0.2404
8286.00,0.2404
8285.00,0.2405
8284.00,0.2405
8283.00,0.2406
8282.00,0.2406
8281.00,0.2406
8280.00,0.2406
8279.00,0.2406
8278.00,0.2405
8277.00,0.2404
8276.00,0.2404
8275.00,0.2403
8274.00,0.2403
8273.00,0.2402
8272.00,0.2402
8271.00,0.2402
8270.00,0.2402
8269.00,0.2402
8268.00,0.2402
8267.00,0.2402
8266.00,0.2403
8265.00,0.2404
8264.00,0.2404
8263.00,0.2404
8262.00,0.2404
8261.00,0.2403
8260.00,0.2402
8259.00,0.2401
8258.00,0.2400
8257.00,0.2400
8256.00,0.2400
8255.00,0.2400
8254.00,0.2400
8253.00,0.2400
8252.00,0.2399
8251.00,0.2399
8250.00,0.2400
8249.00,0.2400
8248.00,0.2399
8247.00,0.2399
8246.00,0.2398
8245.00,0.2397
8244.00,0.2397
8243.00,0.2397
8242.00,0.2397
8241.00,0.2396
8240.00,0.2395
8239.00,0.2394
8238.00,0.2393
8237.00,0.2394
8236.00,0.2394
8235.00,0.2395
8234.00,0.2395
8233.00,0.2395
8232.00,0.2395
8231.00,0.2396
8230.00,0.2397
8229.00,0.2397
8228.00,0.2396
8227.00,0.2395
8226.00,0.2394
8225.00,0.2394
8224.00,0.2393
8223.00,0.2393
8222.00,0.2394
8221.00,0.2394
8220.00,0.2395
8219.00,0.2395
8218.00,0.2395
8217.00,0.2394
8216.00,0.2394
8215.00,0.2393
8214.00,0.2393
8213.00,0.2392
8212.00,0.2391
8211.00,0.2389
8210.00,0.2388
8209.00,0.2388
8208.00,0.2388
8207.00,0.2388
8206.00,0.2388
8205.00,0.2388
8204.00,0.2387
8203.00,0.2386
8202.00,0.2385
8201.00,0.2385
8200.00,0.2385
8199.00,0.2385
8198.00,0.2385
8197.00,0.2384
8196.00,0.2384
8195.00,0.2384
8194.00,0.2384
8193.00,0.2384
8192.00,0.2384
8191.00,0.2383
8190.00,0.2383
8189.00,0.2382
8188.00,0.2382
8187.00,0.2382
8186.00,0.2382
8185.00,0.2381
8184.00,0.2381
8183.00,0.2381
8182.00,0.2382
8181.00,0.2382
8180.00,0.2382
8179.00,0.2381
8178.00,0.2382
8177.00,0.2382
8176.00,0.2382
8175.00,0.2381
8174.00,0.2380
8173.00,0.2378
8172.00,0.2377
8171.00,0.2376
8170.00,0.2375
8169.00,0.2374
8168.00,0.2374
8167.00,0.2375
8166.00,0.2376
8165.00,0.2377
8164.00,0.2377
8163.00,0.2377
8162.00,0.2377
8161.00,0.2375
8160.00,0.2374
8159.00,0.2372
8158.00,0.2371
8157.00,0.2369
8156.00,0.2368
8155.00,0.2368
8154.00,0.2368
8153.00,0.2368
8152.00,0.2369
8151.00,0.2369
8150.00,0.2369
8149.00,0.2368
8148.00,0.2368
8147.00,0.2367
8146.00,0.2367
8145.00,0.2366
8144.00,0.2367
8143.00,0.2367
8142.00,0.2366
8141.00,0.2366
8140.00,0.2366
8139.00,0.2366
8138.00,0.2366
8137.00,0.2365
8136.00,0.2365
8135.00,0.2364
8134.00,0.2363
8133.00,0.2362
8132.00,0.2361
8131.00,0.2360
8130.00,0.2360
8129.00,0.2359
8128.00,0.2359
8127.00,0.2359
8126.00,0.2359
8125.00,0.2359
8124.00,0.2360
8123.00,0.2360
8122.00,0.2360
8121.00,0.2359
8120.00,0.2358
8119.00,0.2357
8118.00,0.2356
8117.00,0.2356
8116.00,0.2356
8115.00,0.2355
8114.00,0.2355
8113.00,0.2355
8112.00,0.2354
8111.00,0.2354
8110.00,0.2353
8109.00,0.2353
8108.00,0.2353
8107.00,0.2353
8106.00,0.2353
8105.00,0.2353
8104.00,0.2353
8103.00,0.2353
8102.00,0.2353
8101.00,0.2352
8100.00,0.2352
8099.00,0.2351
8098.00,0.2350
8097.00,0.2350
8096.00,0.2349
8095.00,0.2348
8094.00,0.2348
8093.00,0.2348
8092.00,0.2348
8091.00,0.2348
8090.00,0.2347
8089.00,0.2346
8088.00,0.2346
8087.00,0.2347
8086.00,0.2347
8085.00,0.2347
8084.00,0.2346
8083.00,0.2345
8082.00,0.2344
8081.00,0.2344
8080.00,0.2343
8079.00,0.2342
8078.00,0.2341
8077.00,0.2341
8076.00,0.2341
8075.00,0.2341
8074.00,0.2341
8073.00,0.2341
8072.00,0.2340
8071.00,0.2340
8070.00,0.2340
8069.00,0.2340
8068.00,0.2340
8067.00,0.2339
8066.00,0.2338
8065.00,0.2339
8064.00,0.2339
8063.00,0.2340
8062.00,0.2339
8061.00,0.2339
8060.00,0.2338
8059.00,0.2338
8058.00,0.2338
8057.00,0.2338
8056.00,0.2337
8055.00,0.2336
8054.00,0.2336
8053.00,0.2336
8052.00,0.2336
8051.00,0.2335
8050.00,0.2334
8049.00,0.2332
8048.00,0.2332
8047.00,0.2331
8046.00,0.2331
8045.00,0.2330
8044.00,0.2329
8043.00,0.2328
8042.00,0.2328
8041.00,0.2328
8040.00,0.2327
8039.00,0.2327
8038.00,0.2326
8037.00,0.2326
8036.00,0.2326
8035.00,0.2326
8034.00,0.2326
8033.00,0.2326
8032.00,0.2325
8031.00,0.2325
8030.00,0.2325
8029.00,0.2325
8028.00,0.2324
8027.00,0.2323
8026.00,0.2323
8025.00,0.2322
8024.00,0.2322
8023.00,0.2322
8022.00,0.2322
8021.00,0.2321
8020.00,0.2321
8019.00,0.2321
8018.00,0.2320
8017.00,0.2320
8016.00,0.2319
8015.00,0.2319
8014.00,0.2319
8013.00,0.2318
8012.00,0.2318
8011.00,0.2318
8010.00,0.2318
8009.00,0.2318
8008.00,0.2319
8007.00,0.2319
8006.00,0.2318
8005.00,0.2318
8004.00,0.2318
8003.00,0.2318
8002.00,0.2318
8001.00,0.2318
8000.00,0.2318
7999.00,0.2318
7998.00,0.2318
7997.00,0.2317
7996.00,0.2317
7995.00,0.2317
7994.00,0.2316
7993.00,0.2315
7992.00,0.2314
7991.00,0.2314
7990.00,0.2314
7989.00,0.2314
7988.00,0.2313
7987.00,0.2313
7986.00,0.2313
7985.00,0.2313
7984.00,0.2313
7983.00,0.2313
7982.00,0.2313
7981.00,0.2312
7980.00,0.2312
7979.00,0.2312
7978.00,0.2311
7977.00,0.2311
7976.00,0.2310
7975.00,0.2309
7974.00,0.2309
7973.00,0.2309
7972.00,0.2309
7971.00,0.2309
7970.00,0.2309
7969.00,0.2309
7968.00,0.2309
7967.00,0.2309
7966.00,0.2308
7965.00,0.2307
7964.00,0.2306
7963.00,0.2306
7962.00,0.2306
7961.00,0.2306
7960.00,0.2306
7959.00,0.2306
7958.00,0.2306
7957.00,0.2305
7956.00,0.2305
7955.00,0.2305
7954.00,0.2305
7953.00,0.2305
7952.00,0.2304
7951.00,0.2303
7950.00,0.2303
7949.00,0.2304
7948.00,0.2304
7947.00,0.2305
7946.00,0.2304
7945.00,0.2303
7944.00,0.2302
7943.00,0.2302
7942.00,0.2302
7941.00,0.2302
7940.00,0.2302
7939.00,0.2302
7938.00,0.2301
7937.00,0.2301
7936.00,0.2301
7935.00,0.2301
7934.00,0.2301
7933.00,0.2300
7932.00,0.2300
7931.00,0.2299
7930.00,0.2298
7929.00,0.2298
7928.00,0.2297
7927.00,0.2297
7926.00,0.2297
7925.00,0.2297
7924.00,0.2297
7923.00,0.2297
7922.00,0.2297
7921.00,0.2297
7920.00,0.2298
7919.00,0.2298
7918.00,0.2298
7917.00,0.2298
7916.00,0.2297
7915.00,0.2296
7914.00,0.2295
7913.00,0.2295
7912.00,0.2294
7911.00,0.2293
7910.00,0.2292
7909.00,0.2291
7908.00,0.2291
7907.00,0.2291
7906.00,0.2291
7905.00,0.2290
7904.00,0.2290
7903.00,0.2291
7902.00,0.2292
7901.00,0.2292
7900.00,0.2292
7899.00,0.2292
7898.00,0.2293
7897.00,0.2293
7896.00,0.2293
7895.00,0.2293
7894.00,0.2292
7893.00,0.2291
7892.00,0.2290
7891.00,0.2289
7890.00,0.2288
7889.00,0.2287
7888.00,0.2287
7887.00,0.2287
7886.00,0.2287
7885.00,0.2286
7884.00,0.2286
7883.00,0.2286
7882.00,0.2286
7881.00,0.2286
7880.00,0.2286
7879.00,0.2286
7878.00,0.2286
7877.00,0.2286
7876.00,0.2286
7875.00,0.2285
7874.00,0.2285
7873.00,0.2285
7872.00,0.2284
7871.00,0.2284
7870.00,0.2283
7869.00,0.2283
7868.00,0.2283
7867.00,0.2283
7866.00,0.2284
7865.00,0.2283
7864.00,0.2283
7863.00,0.2283
7862.00,0.2283
7861.00,0.2283
7860.00,0.2283
7859.00,0.2283
7858.00,0.2282
7857.00,0.2282
7856.00,0.2282
7855.00,0.2281
7854.00,0.2281
7853.00,0.2280
7852.00,0.2279
7851.00,0.2279
7850.00,0.2279
7849.00,0.2279
7848.00,0.2279
7847.00,0.2279
7846.00,0.2279
7845.00,0.2279
7844.00,0.2279
7843.00,0.2279
7842.00,0.2279
7841.00,0.2278
7840.00,0.2277
7839.00,0.2277
7838.00,0.2276
7837.00,0.2275
7836.00,0.2275
7835.00,0.2274
7834.00,0.2274
7833.00,0.2274
7832.00,0.2274
7831.00,0.2274
7830.00,0.2274
7829.00,0.2274
7828.00,0.2274
7827.00,0.2274
7826.00,0.2273
7825.00,0.2273
7824.00,0.2272
7823.00,0.2271
7822.00,0.2271
7821.00,0.2270
7820.00,0.2270
7819.00,0.2271
7818.00,0.2271
7817.00,0.2271
7816.00,0.2271
7815.00,0.2271
7814.00,0.2270
7813.00,0.2270
7812.00,0.2269
7811.00,0.2268
7810.00,0.2267
7809.00,0.2266
7808.00,0.2266
7807.00,0.2266
7806.00,0.2266
7805.00,0.2266
7804.00,0.2266
7803.00,0.2266
7802.00,0.2265
7801.00,0.2265
7800.00,0.2264
7799.00,0.2263
7798.00,0.2262
7797.00,0.2262
7796.00,0.2262
7795.00,0.2262
7794.00,0.2261
7793.00,0.2261
7792.00,0.2261
7791.00,0.2261
7790.00,0.2261
7789.00,0.2261
7788.00,0.2260
7787.00,0.2259
7786.00,0.2259
7785.00,0.2258
7784.00,0.2257
7783.00,0.2257
7782.00,0.2256
7781.00,0.2255
7780.00,0.2256
7779.00,0.2256
7778.00,0.2255
7777.00,0.2255
7776.00,0.2255
7775.00,0.2255
7774.00,0.2255
7773.00,0.2254
7772.00,0.2254
7771.00,0.2253
7770.00,0.2252
7769.00,0.2252
7768.00,0.2252
7767.00,0.2252
7766.00,0.2252
7765.00,0.2251
7764.00,0.2251
7763.00,0.2250
7762.00,0.2250
7761.00,0.2250
7760.00,0.2249
7759.00,0.2249
7758.00,0.2249
7757.00,0.2249
7756.00,0.2249
7755.00,0.2248
7754.00,0.2248
7753.00,0.2248
7752.00,0.2248
7751.00,0.2247
7750.00,0.2246
7749.00,0.2246
7748.00,0.2246
7747.00,0.2246
7746.00,0.2245
7745.00,0.2245
7744.00,0.2245
7743.00,0.2244
7742.00,0.2244
7741.00,0.2244
7740.00,0.2243
7739.00,0.2243
7738.00,0.2242
7737.00,0.2242
7736.00,0.2242
7735.00,0.2242
7734.00,0.2242
7733.00,0.2243
7732.00,0.2242
7731.00,0.2242
7730.00,0.2241
7729.00,0.2241
7728.00,0.2240
7727.00,0.2240
7726.00,0.2240
7725.00,0.2240
7724.00,0.2240
7723.00,0.2240
7722.00,0.2240
7721.00,0.2240
7720.00,0.2239
7719.00,0.2239
7718.00,0.2238
7717.00,0.2237
7716.00,0.2237
7715.00,0.2237
7714.00,0.2237
7713.00,0.2237
7712.00,0.2237
7711.00,0.2237
7710.00,0.2237
7709.00,0.2237
7708.00,0.2237
7707.00,0.2236
7706.00,0.2235
7705.00,0.2235
7704.00,0.2235
7703.00,0.2235
7702.00,0.2235
7701.00,0.2235
7700.00,0.2235
7699.00,0.2234
7698.00,0.2234
7697.00,0.2234
7696.00,0.2234
7695.00,0.2234
7694.00,0.2233
7693.00,0.2232
7692.00,0.2232
7691.00,0.2232
7690.00,0.2232
7689.00,0.2232
7688.00,0.2231
7687.00,0.2231
7686.00,0.2231
7685.00,0.2231
7684.00,0.2232
7683.00,0.2232
7682.00,0.2232
7681.00,0.2231
7680.00,0.2231
7679.00,0.2231
7678.00,0.2231
7677.00,0.2231
7676.00,0.2230
7675.00,0.2230
7674.00,0.2230
7673.00,0.2231
7672.00,0.2231
7671.00,0.2231
7670.00,0.2230
7669.00,0.2230
7668.00,0.2229
7667.00,0.2229
7666.00,0.2228
7665.00,0.2228
7664.00,0.2227
7663.00,0.2227
7662.00,0.2227
7661.00,0.2228
7660.00,0.2228
7659.00,0.2228
7658.00,0.2228
7657.00,0.2227
7656.00,0.2227
7655.00,0.2227
7654.00,0.2227
7653.00,0.2227
7652.00,0.2227
7651.00,0.2227
7650.00,0.2227
7649.00,0.2227
7648.00,0.2227
7647.00,0.2227
7646.00,0.2227
7645.00,0.2227
7644.00,0.2226
7643.00,0.2225
7642.00,0.2225
7641.00,0.2226
7640.00,0.2226
7639.00,0.2227
7638.00,0.2227
7637.00,0.2227
7636.00,0.2228
7635.00,0.2228
7634.00,0.2229
7633.00,0.2229
7632.00,0.2229
7631.00,0.2229
7630.00,0.2228
7629.00,0.2228
7628.00,0.2228
7627.00,0.2228
7626.00,0.2228
7625.00,0.2228
7624.00,0.2228
7623.00,0.2228
7622.00,0.2228
7621.00,0.2229
7620.00,0.2229
7619.00,0.2230
7618.00,0.2229
7617.00,0.2229
7616.00,0.2229
7615.00,0.2229
7614.00,0.2229
7613.00,0.2230
7612.00,0.2230
7611.00,0.2230
7610.00,0.2229
7609.00,0.2230
7608.00,0.2230
7607.00,0.2231
7606.00,0.2231
7605.00,0.2230
7604.00,0.2230
7603.00,0.2230
7602.00,0.2231
7601.00,0.2231
7600.00,0.2231
7599.00,0.2230
7598.00,0.2229
7597.00,0.2229
7596.00,0.2230
7595.00,0.2231
7594.00,0.2231
7593.00,0.2231
7592.00,0.2232
7591.00,0.2232
7590.00,0.2233
7589.00,0.2234
7588.00,0.2235
7587.00,0.2235
7586.00,0.2235
7585.00,0.2235
7584.00,0.2235
7583.00,0.2235
7582.00,0.2235
7581.00,0.2235
7580.00,0.2235
7579.00,0.2234
7578.00,0.2234
7577.00,0.2235
7576.00,0.2235
7575.00,0.2235
7574.00,0.2236
7573.00,0.2237
7572.00,0.2237
7571.00,0.2238
7570.00,0.2239
7569.00,0.2239
7568.00,0.2239
7567.00,0.2240
7566.00,0.2239
7565.00,0.2239
7564.00,0.2238
7563.00,0.2239
7562.00,0.2239
7561.00,0.2240
7560.00,0.2241
7559.00,0.2241
7558.00,0.2241
7557.00,0.2242
7556.00,0.2243
7555.00,0.2244
7554.00,0.2244
7553.00,0.2244
7552.00,0.2245
7551.00,0.2245
7550.00,0.2245
7549.00,0.2245
7548.00,0.2245
7547.00,0.2245
7546.00,0.2245
7545.00,0.2245
7544.00,0.2245
7543.00,0.2245
7542.00,0.2246
7541.00,0.2247
7540.00,0.2248
7539.00,0.2250
7538.00,0.2251
7537.00,0.2252
7536.00,0.2253
7535.00,0.2253
7534.00,0.2254
7533.00,0.2254
7532.00,0.2255
7531.00,0.2255
7530.00,0.2255
7529.00,0.2255
7528.00,0.2256
7527.00,0.2256
7526.00,0.2256
7525.00,0.2257
7524.00,0.2257
7523.00,0.2257
7522.00,0.2258
7521.00,0.2259
7520.00,0.2260
7519.00,0.2261
7518.00,0.2262
7517.00,0.2263
7516.00,0.2264
7515.00,0.2265
7514.00,0.2266
7513.00,0.2267
7512.00,0.2267
7511.00,0.2267
7510.00,0.2268
7509.00,0.2269
7508.00,0.2270
7507.00,0.2270
7506.00,0.2271
7505.00,0.2271
7504.00,0.2272
7503.00,0.2272
7502.00,0.2273
7501.00,0.2274
7500.00,0.2275
7499.00,0.2276
7498.00,0.2277
7497.00,0.2278
7496.00,0.2280
7495.00,0.2281
7494.00,0.2282
7493.00,0.2283
7492.00,0.2284
7491.00,0.2284
7490.00,0.2285
7489.00,0.2286
7488.00,0.2287
7487.00,0.2288
7486.00,0.2288
7485.00,0.2289
7484.00,0.2291
7483.00,0.2292
7482.00,0.2293
7481.00,0.2294
7480.00,0.2295
7479.00,0.2296
7478.00,0.2296
7477.00,0.2297
7476.00,0.2298
7475.00,0.2300
7474.00,0.2301
7473.00,0.2302
7472.00,0.2303
7471.00,0.2304
7470.00,0.2305
7469.00,0.2307
7468.00,0.2308
7467.00,0.2309
7466.00,0.2309
7465.00,0.2309
7464.00,0.2309
7463.00,0.2310
7462.00,0.2311
7461.00,0.2312
7460.00,0.2314
7459.00,0.2315
7458.00,0.2316
7457.00,0.2317
7456.00,0.2319
7455.00,0.2321
7454.00,0.2322
7453.00,0.2323
7452.00,0.2323
7451.00,0.2324
7450.00,0.2325
7449.00,0.2327
7448.00,0.2329
7447.00,0.2330
7446.00,0.2331
7445.00,0.2332
7444.00,0.2333
7443.00,0.2334
7442.00,0.2335
7441.00,0.2336
7440.00,0.2336
7439.00,0.2337
7438.00,0.2338
7437.00,0.2340
7436.00,0.2341
7435.00,0.2342
7434.00,0.2343
7433.00,0.2344
7432.00,0.2346
7431.00,0.2348
7430.00,0.2349
7429.00,0.2350
7428.00,0.2350
7427.00,0.2352
7426.00,0.2353
7425.00,0.2354
7424.00,0.2356
7423.00,0.2357
7422.00,0.2358
7421.00,0.2359
7420.00,0.2361
7419.00,0.2362
7418.00,0.2363
7417.00,0.2363
7416.00,0.2364
7415.00,0.2365
7414.00,0.2366
7413.00,0.2368
7412.00,0.2369
7411.00,0.2371
7410.00,0.2373
7409.00,0.2374
7408.00,0.2375
7407.00,0.2376
7406.00,0.2377
7405.00,0.2378
7404.00,0.2380
7403.00,0.2381
7402.00,0.2382
7401.00,0.2383
7400.00,0.2384
7399.00,0.2385
7398.00,0.2386
7397.00,0.2388
7396.00,0.2389
7395.00,0.2390
7394.00,0.2392
7393.00,0.2394
7392.00,0.2396
7391.00,0.2398
7390.00,0.2399
7389.00,0.2401
7388.00,0.2403
7387.00,0.2405
7386.00,0.2407
7385.00,0.2408
7384.00,0.2409
7383.00,0.2410
7382.00,0.2412
7381.00,0.2414
7380.00,0.2415
7379.00,0.2415
7378.00,0.2414
7377.00,0.2414
7376.00,0.2415
7375.00,0.2418
7374.00,0.2420
7373.00,0.2422
7372.00,0.2423
7371.00,0.2424
7370.00,0.2425
7369.00,0.2428
7368.00,0.2429
7367.00,0.2430
7366.00,0.2430
7365.00,0.2430
7364.00,0.2431
7363.00,0.2432
7362.00,0.2435
7361.00,0.2437
7360.00,0.2440
7359.00,0.2441
7358.00,0.2441
7357.00,0.2441
7356.00,0.2442
7355.00,0.2444
7354.00,0.2446
7353.00,0.2447
7352.00,0.2448
7351.00,0.2449
7350.00,0.2451
7349.00,0.2454
7348.00,0.2457
7347.00,0.2459
7346.00,0.2460
7345.00,0.2462
7344.00,0.2462
7343.00,0.2462
7342.00,0.2461
7341.00,0.2460
7340.00,0.2459
7339.00,0.2460
7338.00,0.2460
7337.00,0.2460
7336.00,0.2462
7335.00,0.2465
7334.00,0.2469
7333.00,0.2473
7332.00,0.2475
7331.00,0.2475
7330.00,0.2475
7329.00,0.2475
7328.00,0.2477
7327.00,0.2477
7326.00,0.2476
7325.00,0.2474
7324.00,0.2474
7323.00,0.2476
7322.00,0.2478
7321.00,0.2480
7320.00,0.2481
7319.00,0.2482
7318.00,0.2484
7317.00,0.2487
7316.00,0.2489
7315.00,0.2490
7314.00,0.2490
7313.00,0.2490
7312.00,0.2491
7311.00,0.2492
7310.00,0.2491
7309.00,0.2490
7308.00,0.2488
7307.00,0.2489
7306.00,0.2491
7305.00,0.2493
7304.00,0.2494
7303.00,0.2495
7302.00,0.2496
7301.00,0.2498
7300.00,0.2501
7299.00,0.2503
7298.00,0.2504
7297.00,0.2502
7296.00,0.2500
7295.00,0.2501
7294.00,0.2503
7293.00,0.2505
7292.00,0.2505
7291.00,0.2503
7290.00,0.2502
7289.00,0.2502
7288.00,0.2504
7287.00,0.2505
7286.00,0.2505
7285.00,0.2505
7284.00,0.2505
7283.00,0.2506
7282.00,0.2508
7281.00,0.2510
7280.00,0.2510
7279.00,0.2510
7278.00,0.2511
7277.00,0.2511
7276.00,0.2511
7275.00,0.2511
7274.00,0.2511
7273.00,0.2512
7272.00,0.2512
7271.00,0.2512
7270.00,0.2513
7269.00,0.2514
7268.00,0.2516
7267.00,0.2518
7266.00,0.2519
7265.00,0.2520
7264.00,0.2520
7263.00,0.2521
7262.00,0.2522
7261.00,0.2523
7260.00,0.2523
7259.00,0.2524
7258.00,0.2525
7257.00,0.2525
7256.00,0.2526
7255.00,0.2525
7254.00,0.2525
7253.00,0.2525
7252.00,0.2526
7251.00,0.2527
7250.00,0.2528
7249.00,0.2531
7248.00,0.2535
7247.00,0.2539
7246.00,0.2540
7245.00,0.2539
7244.00,0.2539
7243.00,0.2539
7242.00,0.2539
7241.00,0.2538
7240.00,0.2538
7239.00,0.2540
7238.00,0.2545
7237.00,0.2550
7236.00,0.2552
7235.00,0.2552
7234.00,0.2551
7233.00,0.2551
7232.00,0.2551
7231.00,0.2552
7230.00,0.2551
7229.00,0.2550
7228.00,0.2551
7227.00,0.2554
7226.00,0.2558
7225.00,0.2561
7224.00,0.2563
7223.00,0.2563
7222.00,0.2563
7221.00,0.2564
7220.00,0.2567
7219.00,0.2568
7218.00,0.2569
7217.00,0.2569
7216.00,0.2569
7215.00,0.2571
7214.00,0.2573
7213.00,0.2575
7212.00,0.2577
7211.00,0.2580
7210.00,0.2584
7209.00,0.2587
7208.00,0.2590
7207.00,0.2591
7206.00,0.2592
7205.00,0.2593
7204.00,0.2594
7203.00,0.2595
7202.00,0.2596
7201.00,0.2597
7200.00,0.2600
7199.00,0.2604
7198.00,0.2607
7197.00,0.2609
7196.00,0.2610
7195.00,0.2612
7194.00,0.2614
7193.00,0.2616
7192.00,0.2618
7191.00,0.2621
7190.00,0.2624
7189.00,0.2628
7188.00,0.2631
7187.00,0.2635
7186.00,0.2639
7185.00,0.2641
7184.00,0.2642
7183.00,0.2643
7182.00,0.2644
7181.00,0.2646
7180.00,0.2648
7179.00,0.2649
7178.00,0.2651
7177.00,0.2654
7176.00,0.2659
7175.00,0.2664
7174.00,0.2669
7173.00,0.2673
7172.00,0.2675
7171.00,0.2677
7170.00,0.2679
7169.00,0.2681
7168.00,0.2684
7167.00,0.2687
7166.00,0.2690
7165.00,0.2693
7164.00,0.2695
7163.00,0.2697
7162.00,0.2700
7161.00,0.2703
7160.00,0.2707
7159.00,0.2709
7158.00,0.2710
7157.00,0.2713
7156.00,0.2717
7155.00,0.2721
7154.00,0.2724
7153.00,0.2727
7152.00,0.2730
7151.00,0.2734
7150.00,0.2738
7149.00,0.2742
7148.00,0.2745
7147.00,0.2749
7146.00,0.2753
7145.00,0.2758
7144.00,0.2762
7143.00,0.2765
7142.00,0.2767
7141.00,0.2770
7140.00,0.2774
7139.00,0.2777
7138.00,0.2780
7137.00,0.2781
7136.00,0.2784
7135.00,0.2787
7134.00,0.2792
7133.00,0.2796
7132.00,0.2800
7131.00,0.2804
7130.00,0.2808
7129.00,0.2812
7128.00,0.2817
7127.00,0.2821
7126.00,0.2825
7125.00,0.2829
7124.00,0.2834
7123.00,0.2839
7122.00,0.2844
7121.00,0.2848
7120.00,0.2850
7119.00,0.2852
7118.00,0.2856
7117.00,0.2860
7116.00,0.2864
7115.00,0.2868
7114.00,0.2872
7113.00,0.2878
7112.00,0.2884
7111.00,0.2890
7110.00,0.2894
7109.00,0.2898
7108.00,0.2901
7107.00,0.2904
7106.00,0.2908
7105.00,0.2913
7104.00,0.2918
7103.00,0.2922
7102.00,0.2928
7101.00,0.2933
7100.00,0.2939
7099.00,0.2945
7098.00,0.2949
7097.00,0.2952
7096.00,0.2956
7095.00,0.2960
7094.00,0.2965
7093.00,0.2969
7092.00,0.2973
7091.00,0.2978
7090.00,0.2983
7089.00,0.2988
7088.00,0.2993
7087.00,0.2998
7086.00,0.3004
7085.00,0.3009
7084.00,0.3014
7083.00,0.3020
7082.00,0.3025
7081.00,0.3031
7080.00,0.3036
7079.00,0.3041
7078.00,0.3046
7077.00,0.3051
7076.00,0.3057
7075.00,0.3063
7074.00,0.3068
7073.00,0.3073
7072.00,0.3078
7071.00,0.3083
7070.00,0.3089
7069.00,0.3094
7068.00,0.3099
7067.00,0.3104
7066.00,0.3110
7065.00,0.3116
7064.00,0.3123
7063.00,0.3128
7062.00,0.3133
7061.00,0.3139
7060.00,0.3144
7059.00,0.3150
7058.00,0.3155
7057.00,0.3161
7056.00,0.3166
7055.00,0.3171
7054.00,0.3177
7053.00,0.3183
7052.00,0.3188
7051.00,0.3193
7050.00,0.3198
7049.00,0.3204
7048.00,0.3210
7047.00,0.3216
7046.00,0.3222
7045.00,0.3227
7044.00,0.3232
7043.00,0.3238
7042.00,0.3243
7041.00,0.3249
7040.00,0.3254
7039.00,0.3259
7038.00,0.3265
7037.00,0.3270
7036.00,0.3275
7035.00,0.3281
7034.00,0.3288
7033.00,0.3294
7032.00,0.3299
7031.00,0.3305
7030.00,0.3310
7029.00,0.3316
7028.00,0.3321
7027.00,0.3326
7026.00,0.3331
7025.00,0.3336
7024.00,0.3341
7023.00,0.3346
7022.00,0.3352
7021.00,0.3357
7020.00,0.3363
7019.00,0.3369
7018.00,0.3375
7017.00,0.3380
7016.00,0.3385
7015.00,0.3390
7014.00,0.3395
7013.00,0.3399
7012.00,0.3403
7011.00,0.3408
7010.00,0.3413
7009.00,0.3419
7008.00,0.3424
7007.00,0.3429
7006.00,0.3434
7005.00,0.3440
7004.00,0.3445
7003.00,0.3450
7002.00,0.3455
7001.00,0.3459
7000.00,0.3464
6999.00,0.3470
6998.00,0.3475
6997.00,0.3480
6996.00,0.3484
6995.00,0.3489
6994.00,0.3494
6993.00,0.3499
6992.00,0.3503
6991.00,0.3507
6990.00,0.3511
6989.00,0.3515
6988.00,0.3519
6987.00,0.3523
6986.00,0.3528
6985.00,0.3532
6984.00,0.3537
6983.00,0.3541
6982.00,0.3546
6981.00,0.3550
6980.00,0.3555
6979.00,0.3559
6978.00,0.3563
6977.00,0.3567
6976.00,0.3571
6975.00,0.3575
6974.00,0.3580
6973.00,0.3584
6972.00,0.3587
6971.00,0.3591
6970.00,0.3595
6969.00,0.3598
6968.00,0.3601
6967.00,0.3604
6966.00,0.3607
6965.00,0.3611
6964.00,0.3615
6963.00,0.3618
6962.00,0.3622
6961.00,0.3626
6960.00,0.3629
6959.00,0.3633
6958.00,0.3636
6957.00,0.3639
6956.00,0.3641
6955.00,0.3643
6954.00,0.3646
6953.00,0.3649
6952.00,0.3652
6951.00,0.3655
6950.00,0.3659
6949.00,0.3662
6948.00,0.3665
6947.00,0.3668
6946.00,0.3671
6945.00,0.3673
6944.00,0.3675
6943.00,0.3678
6942.00,0.3681
6941.00,0.3684
6940.00,0.3687
6939.00,0.3689
6938.00,0.3692
6937.00,0.3694
6936.00,0.3696
6935.00,0.3698
6934.00,0.3700
6933.00,0.3702
6932.00,0.3704
6931.00,0.3707
6930.00,0.3709
6929.00,0.3712
6928.00,0.3715
6927.00,0.3717
6926.00,0.3719
6925.00,0.3721
6924.00,0.3724
6923.00,0.3727
6922.00,0.3729
6921.00,0.3731
6920.00,0.3732
6919.00,0.3734
6918.00,0.3735
6917.00,0.3737
6916.00,0.3738
6915.00,0.3739
6914.00,0.3740
6913.00,0.3741
6912.00,0.3744
6911.00,0.3746
6910.00,0.3748
6909.00,0.3749
6908.00,0.3751
6907.00,0.3752
6906.00,0.3754
6905.00,0.3755
6904.00,0.3757
6903.00,0.3758
6902.00,0.3760
6901.00,0.3762
6900.00,0.3763
6899.00,0.3765
6898.00,0.3767
6897.00,0.3768
6896.00,0.3769
6895.00,0.3770
6894.00,0.3771
6893.00,0.3772
6892.00,0.3773
6891.00,0.3774
6890.00,0.3775
6889.00,0.3776
6888.00,0.3778
6887.00,0.3779
6886.00,0.3781
6885.00,0.3782
6884.00,0.3782
6883.00,0.3783
6882.00,0.3784
6881.00,0.3784
6880.00,0.3785
6879.00,0.3786
6878.00,0.3787
6877.00,0.3788
6876.00,0.3789
6875.00,0.3790
6874.00,0.3791
6873.00,0.3791
6872.00,0.3792
6871.00,0.3792
6870.00,0.3792
6869.00,0.3793
6868.00,0.3794
6867.00,0.3795
6866.00,0.3797
6865.00,0.3798
6864.00,0.3799
6863.00,0.3800
6862.00,0.3801
6861.00,0.3802
6860.00,0.3803
6859.00,0.3804
6858.00,0.3804
6857.00,0.3805
6856.00,0.3806
6855.00,0.3806
6854.00,0.3807
6853.00,0.3808
6852.00,0.3808
6851.00,0.3809
6850.00,0.3810
6849.00,0.3811
6848.00,0.3811
6847.00,0.3811
6846.00,0.3811
6845.00,0.3812
6844.00,0.3812
6843.00,0.3813
6842.00,0.3814
6841.00,0.3814
6840.00,0.3814
6839.00,0.3815
6838.00,0.3815
6837.00,0.3815
6836.00,0.3815
6835.00,0.3815
6834.00,0.3816
6833.00,0.3816
6832.00,0.3817
6831.00,0.3818
6830.00,0.3819
6829.00,0.3820
6828.00,0.3820
6827.00,0.3820
6826.00,0.3820
6825.00,0.3820
6824.00,0.3820
6823.00,0.3820
6822.00,0.3821
6821.00,0.3821
6820.00,0.3822
6819.00,0.3822
6818.00,0.3822
6817.00,0.3822
6816.00,0.3822
6815.00,0.3822
6814.00,0.3823
6813.00,0.3824
6812.00,0.3824
6811.00,0.3825
6810.00,0.3825
6809.00,0.3825
6808.00,0.3825
6807.00,0.3824
6806.00,0.3824
6805.00,0.3824
6804.00,0.3825
6803.00,0.3825
6802.00,0.3825
6801.00,0.3825
6800.00,0.3825
6799.00,0.3826
6798.00,0.3826
6797.00,0.3825
6796.00,0.3825
6795.00,0.3824
6794.00,0.3824
6793.00,0.3824
6792.00,0.3824
6791.00,0.3824
6790.00,0.3824
6789.00,0.3823
6788.00,0.3823
6787.00,0.3823
6786.00,0.3823
6785.00,0.3823
6784.00,0.3822
6783.00,0.3822
6782.00,0.3822
6781.00,0.3822
6780.00,0.3822
6779.00,0.3822
6778.00,0.3822
6777.00,0.3822
6776.00,0.3821
6775.00,0.3821
6774.00,0.3820
6773.00,0.3820
6772.00,0.3819
6771.00,0.3819
6770.00,0.3818
6769.00,0.3818
6768.00,0.3818
6767.00,0.3817
6766.00,0.3817
6765.00,0.3816
6764.00,0.3816
6763.00,0.3816
6762.00,0.3816
6761.00,0.3816
6760.00,0.3816
6759.00,0.3815
6758.00,0.3815
6757.00,0.3814
6756.00,0.3813
6755.00,0.3812
6754.00,0.3811
6753.00,0.3810
6752.00,0.3810
6751.00,0.3809
6750.00,0.3809
6749.00,0.3809
6748.00,0.3808
6747.00,0.3808
6746.00,0.3807
6745.00,0.3806
6744.00,0.3806
6743.00,0.3805
6742.00,0.3805
6741.00,0.3804
6740.00,0.3804
6739.00,0.3804
6738.00,0.3803
6737.00,0.3802
6736.00,0.3801
6735.00,0.3801
6734.00,0.3800
6733.00,0.3799
6732.00,0.3799
6731.00,0.3798
6730.00,0.3797
6729.00,0.3796
6728.00,0.3796
6727.00,0.3795
6726.00,0.3793
6725.00,0.3792
6724.00,0.3791
6723.00,0.3791
6722.00,0.3790
6721.00,0.3789
6720.00,0.3788
6719.00,0.3787
6718.00,0.3786
6717.00,0.3785
6716.00,0.3784
6715.00,0.3784
6714.00,0.3783
6713.00,0.3783
6712.00,0.3782
6711.00,0.3782
6710.00,0.3781
6709.00,0.3780
6708.00,0.3780
6707.00,0.3779
6706.00,0.3778
6705.00,0.3778
6704.00,0.3777
6703.00,0.3776
6702.00,0.3775
6701.00,0.3773
6700.00,0.3772
6699.00,0.3771
6698.00,0.3770
6697.00,0.3769
6696.00,0.3768
6695.00,0.3767
6694.00,0.3766
6693.00,0.3765
6692.00,0.3764
6691.00,0.3763
6690.00,0.3762
6689.00,0.3761
6688.00,0.3761
6687.00,0.3760
6686.00,0.3760
6685.00,0.3759
6684.00,0.3758
6683.00,0.3757
6682.00,0.3756
6681.00,0.3755
6680.00,0.3754
6679.00,0.3753
6678.00,0.3752
6677.00,0.3751
6676.00,0.3751
6675.00,0.3750
6674.00,0.3750
6673.00,0.3749
6672.00,0.3748
6671.00,0.3747
6670.00,0.3746
6669.00,0.3744
6668.00,0.3743
6667.00,0.3742
6666.00,0.3741
6665.00,0.3740
6664.00,0.3739
6663.00,0.3738
6662.00,0.3738
6661.00,0.3737
6660.00,0.3737
6659.00,0.3736
6658.00,0.3734
6657.00,0.3733
6656.00,0.3732
6655.00,0.3732
6654.00,0.3731
6653.00,0.3730
6652.00,0.3730
6651.00,0.3729
6650.00,0.3728
6649.00,0.3727
6648.00,0.3725
6647.00,0.3724
6646.00,0.3723
6645.00,0.3721
6644.00,0.3719
6643.00,0.3718
6642.00,0.3717
6641.00,0.3716
6640.00,0.3715
6639.00,0.3715
6638.00,0.3714
6637.00,0.3713
6636.00,0.3713
6635.00,0.3712
6634.00,0.3711
6633.00,0.3709
6632.00,0.3708
6631.00,0.3707
6630.00,0.3706
6629.00,0.3705
6628.00,0.3703
6627.00,0.3702
6626.00,0.3701
6625.00,0.3700
6624.00,0.3700
6623.00,0.3699
6622.00,0.3698
6621.00,0.3697
6620.00,0.3696
6619.00,0.3695
6618.00,0.3694
6617.00,0.3692
6616.00,0.3691
6615.00,0.3690
6614.00,0.3688
6613.00,0.3687
6612.00,0.3686
6611.00,0.3686
6610.00,0.3685
6609.00,0.3684
6608.00,0.3683
6607.00,0.3682
6606.00,0.3681
6605.00,0.3680
6604.00,0.3679
6603.00,0.3678
6602.00,0.3677
6601.00,0.3676
6600.00,0.3675
6599.00,0.3674
6598.00,0.3673
6597.00,0.3673
6596.00,0.3671
6595.00,0.3671
6594.00,0.3670
6593.00,0.3669
6592.00,0.3668
6591.00,0.3667
6590.00,0.3666
6589.00,0.3665
6588.00,0.3664
6587.00,0.3663
6586.00,0.3662
6585.00,0.3661
6584.00,0.3660
6583.00,0.3658
6582.00,0.3657
6581.00,0.3656
6580.00,0.3655
6579.00,0.3654
6578.00,0.3654
6577.00,0.3653
6576.00,0.3652
6575.00,0.3651
6574.00,0.3651
6573.00,0.3650
6572.00,0.3649
6571.00,0.3649
6570.00,0.3649
6569.00,0.3648
6568.00,0.3647
6567.00,0.3647
6566.00,0.3646
6565.00,0.3645
6564.00,0.3644
6563.00,0.3644
6562.00,0.3643
6561.00,0.3642
6560.00,0.3641
6559.00,0.3640
6558.00,0.3639
6557.00,0.3637
6556.00,0.3636
6555.00,0.3636
6554.00,0.3635
6553.00,0.3634
6552.00,0.3633
6551.00,0.3633
6550.00,0.3632
6549.00,0.3632
6548.00,0.3631
6547.00,0.3631
6546.00,0.3631
6545.00,0.3632
6544.00,0.3631
6543.00,0.3631
6542.00,0.3630
6541.00,0.3629
6540.00,0.3628
6539.00,0.3627
6538.00,0.3626
6537.00,0.3625
6536.00,0.3625
6535.00,0.3624
6534.00,0.3624
6533.00,0.3624
6532.00,0.3623
6531.00,0.3623
6530.00,0.3622
6529.00,0.3622
6528.00,0.3621
6527.00,0.3620
6526.00,0.3620
6525.00,0.3619
6524.00,0.3619
6523.00,0.3618
6522.00,0.3618
6521.00,0.3618
6520.00,0.3617
6519.00,0.3617
6518.00,0.3616
6517.00,0.3616
6516.00,0.3615
6515.00,0.3615
6514.00,0.3614
6513.00,0.3614
6512.00,0.3613
6511.00,0.3614
6510.00,0.3613
6509.00,0.3613
6508.00,0.3613
6507.00,0.3613
6506.00,0.3613
6505.00,0.3613
6504.00,0.3613
6503.00,0.3613
6502.00,0.3612
6501.00,0.3612
6500.00,0.3612
6499.00,0.3612
6498.00,0.3611
6497.00,0.3610
6496.00,0.3610
6495.00,0.3610
6494.00,0.3609
6493.00,0.3609
6492.00,0.3609
6491.00,0.3609
6490.00,0.3608
6489.00,0.3608
6488.00,0.3607
6487.00,0.3607
6486.00,0.3606
6485.00,0.3606
6484.00,0.3606
6483.00,0.3606
6482.00,0.3606
6481.00,0.3607
6480.00,0.3607
6479.00,0.3607
6478.00,0.3607
6477.00,0.3607
6476.00,0.3607
6475.00,0.3607
6474.00,0.3607
6473.00,0.3607
6472.00,0.3607
6471.00,0.3606
6470.00,0.3606
6469.00,0.3606
6468.00,0.3606
6467.00,0.3606
6466.00,0.3606
6465.00,0.3605
6464.00,0.3605
6463.00,0.3605
6462.00,0.3606
6461.00,0.3606
6460.00,0.3606
6459.00,0.3607
6458.00,0.3607
6457.00,0.3607
6456.00,0.3607
6455.00,0.3607
6454.00,0.3607
6453.00,0.3606
6452.00,0.3605
6451.00,0.3605
6450.00,0.3605
6449.00,0.3605
6448.00,0.3605
6447.00,0.3605
6446.00,0.3605
6445.00,0.3606
6444.00,0.3606
6443.00,0.3606
6442.00,0.3607
6441.00,0.3607
6440.00,0.3606
6439.00,0.3606
6438.00,0.3607
6437.00,0.3607
6436.00,0.3607
6435.00,0.3607
6434.00,0.3607
6433.00,0.3607
6432.00,0.3607
6431.00,0.3607
6430.00,0.3608
6429.00,0.3608
6428.00,0.3608
6427.00,0.3608
6426.00,0.3608
6425.00,0.3607
6424.00,0.3608
6423.00,0.3608
6422.00,0.3608
6421.00,0.3609
6420.00,0.3610
6419.00,0.3611
6418.00,0.3611
6417.00,0.3611
6416.00,0.3611
6415.00,0.3611
6414.00,0.3611
6413.00,0.3610
6412.00,0.3610
6411.00,0.3610
6410.00,0.3611
6409.00,0.3611
6408.00,0.3611
6407.00,0.3611
6406.00,0.3611
6405.00,0.3611
6404.00,0.3611
6403.00,0.3611
6402.00,0.3611
6401.00,0.3611
6400.00,0.3611
6399.00,0.3611
6398.00,0.3612
6397.00,0.3612
6396.00,0.3612
6395.00,0.3612
6394.00,0.3612
6393.00,0.3611
6392.00,0.3611
6391.00,0.3611
6390.00,0.3611
6389.00,0.3612
6388.00,0.3612
6387.00,0.3612
6386.00,0.3612
6385.00,0.3612
6384.00,0.3612
6383.00,0.3611
6382.00,0.3611
6381.00,0.3611
6380.00,0.3611
6379.00,0.3611
6378.00,0.3611
6377.00,0.3611
6376.00,0.3611
6375.00,0.3611
6374.00,0.3611
6373.00,0.3610
6372.00,0.3610
6371.00,0.3610
6370.00,0.3610
6369.00,0.3610
6368.00,0.3610
6367.00,0.3610
6366.00,0.3610
6365.00,0.3609
6364.00,0.3609
6363.00,0.3609
6362.00,0.3609
6361.00,0.3609
6360.00,0.3610
6359.00,0.3610
6358.00,0.3610
6357.00,0.3610
6356.00,0.3610
6355.00,0.3609
6354.00,0.3609
6353.00,0.3608
6352.00,0.3608
6351.00,0.3607
6350.00,0.3607
6349.00,0.3606
6348.00,0.3606
6347.00,0.3606
6346.00,0.3605
6345.00,0.3605
6344.00,0.3605
6343.00,0.3605
6342.00,0.3605
6341.00,0.3605
6340.00,0.3605
6339.00,0.3605
6338.00,0.3605
6337.00,0.3604
6336.00,0.3604
6335.00,0.3604
6334.00,0.3604
6333.00,0.3604
6332.00,0.3603
6331.00,0.3603
6330.00,0.3603
6329.00,0.3602
6328.00,0.3601
6327.00,0.3600
6326.00,0.3600
6325.00,0.3599
6324.00,0.3599
6323.00,0.3598
6322.00,0.3598
6321.00,0.3597
6320.00,0.3597
6319.00,0.3596
6318.00,0.3595
6317.00,0.3594
6316.00,0.3593
6315.00,0.3593
6314.00,0.3592
6313.00,0.3592
6312.00,0.3592
6311.00,0.3592
6310.00,0.3592
6309.00,0.3591
6308.00,0.3591
6307.00,0.3590
6306.00,0.3589
6305.00,0.3588
6304.00,0.3587
6303.00,0.3587
6302.00,0.3586
6301.00,0.3586
6300.00,0.3585
6299.00,0.3584
6298.00,0.3583
6297.00,0.3583
6296.00,0.3582
6295.00,0.3581
6294.00,0.3580
6293.00,0.3579
6292.00,0.3579
6291.00,0.3579
6290.00,0.3578
6289.00,0.3578
6288.00,0.3577
6287.00,0.3577
6286.00,0.3576
6285.00,0.3575
6284.00,0.3574
6283.00,0.3573
6282.00,0.3572
6281.00,0.3572
6280.00,0.3571
6279.00,0.3570
6278.00,0.3569
6277.00,0.3568
6276.00,0.3568
6275.00,0.3567
6274.00,0.3566
6273.00,0.3565
6272.00,0.3564
6271.00,0.3564
6270.00,0.3563
6269.00,0.3562
6268.00,0.3561
6267.00,0.3560
6266.00,0.3559
6265.00,0.3558
6264.00,0.3557
6263.00,0.3556
6262.00,0.3555
6261.00,0.3554
6260.00,0.3554
6259.00,0.3553
6258.00,0.3552
6257.00,0.3551
6256.00,0.3550
6255.00,0.3549
6254.00,0.3548
6253.00,0.3548
6252.00,0.3547
6251.00,0.3546
6250.00,0.3545
6249.00,0.3544
6248.00,0.3544
6247.00,0.3542
6246.00,0.3541
6245.00,0.3540
6244.00,0.3539
6243.00,0.3538
6242.00,0.3537
6241.00,0.3536
6240.00,0.3535
6239.00,0.3534
6238.00,0.3534
6237.00,0.3533
6236.00,0.3531
6235.00,0.3530
6234.00,0.3528
6233.00,0.3527
6232.00,0.3526
6231.00,0.3525
6230.00,0.3524
6229.00,0.3523
6228.00,0.3523
6227.00,0.3522
6226.00,0.3521
6225.00,0.3519
6224.00,0.3518
6223.00,0.3517
6222.00,0.3516
6221.00,0.3514
6220.00,0.3513
6219.00,0.3512
6218.00,0.3511
6217.00,0.3509
6216.00,0.3508
6215.00,0.3507
6214.00,0.3506
6213.00,0.3505
6212.00,0.3503
6211.00,0.3502
6210.00,0.3501
6209.00,0.3500
6208.00,0.3499
6207.00,0.3497
6206.00,0.3496
6205.00,0.3496
6204.00,0.3495
6203.00,0.3493
6202.00,0.3492
6201.00,0.3491
6200.00,0.3490
6199.00,0.3489
6198.00,0.3488
6197.00,0.3486
6196.00,0.3485
6195.00,0.3484
6194.00,0.3483
6193.00,0.3482
6192.00,0.3481
6191.00,0.3480
6190.00,0.3479
6189.00,0.3478
6188.00,0.3477
6187.00,0.3476
6186.00,0.3475
6185.00,0.3474
6184.00,0.3473
6183.00,0.3472
6182.00,0.3471
6181.00,0.3470
6180.00,0.3468
6179.00,0.3467
6178.00,0.3465
6177.00,0.3464
6176.00,0.3463
6175.00,0.3461
6174.00,0.3460
6173.00,0.3459
6172.00,0.3458
6171.00,0.3457
6170.00,0.3455
6169.00,0.3454
6168.00,0.3453
6167.00,0.3452
6166.00,0.3452
6165.00,0.3451
6164.00,0.3450
6163.00,0.3449
6162.00,0.3448
6161.00,0.3447
6160.00,0.3446
6159.00,0.3445
6158.00,0.3443
6157.00,0.3442
6156.00,0.3442
6155.00,0.3441
6154.00,0.3440
6153.00,0.3439
6152.00,0.3438
6151.00,0.3437
6150.00,0.3435
6149.00,0.3434
6148.00,0.3433
6147.00,0.3431
6146.00,0.3430
6145.00,0.3430
6144.00,0.3429
6143.00,0.3428
6142.00,0.3427
6141.00,0.3425
6140.00,0.3424
6139.00,0.3422
6138.00,0.3420
6137.00,0.3419
6136.00,0.3418
6135.00,0.3417
6134.00,0.3416
6133.00,0.3415
6132.00,0.3414
6131.00,0.3413
6130.00,0.3411
6129.00,0.3410
6128.00,0.3408
6127.00,0.3407
6126.00,0.3406
6125.00,0.3406
6124.00,0.3405
6123.00,0.3405
6122.00,0.3404
6121.00,0.3402
6120.00,0.3401
6119.00,0.3400
6118.00,0.3399
6117.00,0.3397
6116.00,0.3397
6115.00,0.3396
6114.00,0.3395
6113.00,0.3394
6112.00,0.3393
6111.00,0.3392
6110.00,0.3391
6109.00,0.3390
6108.00,0.3389
6107.00,0.3387
6106.00,0.3386
6105.00,0.3385
6104.00,0.3384
6103.00,0.3383
6102.00,0.3382
6101.00,0.3381
6100.00,0.3380
6099.00,0.3379
6098.00,0.3378
6097.00,0.3376
6096.00,0.3375
6095.00,0.3374
6094.00,0.3373
6093.00,0.3372
6092.00,0.3371
6091.00,0.3371
6090.00,0.3370
6089.00,0.3369
6088.00,0.3368
6087.00,0.3367
6086.00,0.3365
6085.00,0.3364
6084.00,0.3363
6083.00,0.3362
6082.00,0.3361
6081.00,0.3360
6080.00,0.3359
6079.00,0.3358
6078.00,0.3357
6077.00,0.3356
6076.00,0.3355
6075.00,0.3355
6074.00,0.3354
6073.00,0.3353
6072.00,0.3352
6071.00,0.3351
6070.00,0.3350
6069.00,0.3350
6068.00,0.3349
6067.00,0.3348
6066.00,0.3347
6065.00,0.3346
6064.00,0.3345
6063.00,0.3343
6062.00,0.3342
6061.00,0.3341
6060.00,0.3340
6059.00,0.3340
6058.00,0.3338
6057.00,0.3337
6056.00,0.3336
6055.00,0.3336
6054.00,0.3335
6053.00,0.3335
6052.00,0.3334
6051.00,0.3334
6050.00,0.3334
6049.00,0.3333
6048.00,0.3333
6047.00,0.3332
6046.00,0.3331
6045.00,0.3330
6044.00,0.3329
6043.00,0.3328
6042.00,0.3327
6041.00,0.3326
6040.00,0.3325
6039.00,0.3325
6038.00,0.3325
6037.00,0.3324
6036.00,0.3324
6035.00,0.3324
6034.00,0.3324
6033.00,0.3323
6032.00,0.3322
6031.00,0.3322
6030.00,0.3321
6029.00,0.3321
6028.00,0.3320
6027.00,0.3319
6026.00,0.3319
6025.00,0.3318
6024.00,0.3317
6023.00,0.3316
6022.00,0.3316
6021.00,0.3315
6020.00,0.3315
6019.00,0.3315
6018.00,0.3315
6017.00,0.3315
6016.00,0.3315
6015.00,0.3314
6014.00,0.3314
6013.00,0.3313
6012.00,0.3312
6011.00,0.3312
6010.00,0.3312
6009.00,0.3312
6008.00,0.3312
6007.00,0.3312
6006.00,0.3312
6005.00,0.3311
6004.00,0.3311
6003.00,0.3311
6002.00,0.3311
6001.00,0.3311
6000.00,0.3311
5999.00,0.3311
5998.00,0.3311
5997.00,0.3311
5996.00,0.3311
5995.00,0.3311
5994.00,0.3310
5993.00,0.3310
5992.00,0.3310
5991.00,0.3310
5990.00,0.3310
5989.00,0.3310
5988.00,0.3310
5987.00,0.3311
5986.00,0.3312
5985.00,0.3312
5984.00,0.3312
5983.00,0.3312
5982.00,0.3312
5981.00,0.3312
5980.00,0.3312
5979.00,0.3313
5978.00,0.3313
5977.00,0.3313
5976.00,0.3313
5975.00,0.3314
5974.00,0.3314
5973.00,0.3314
5972.00,0.3314
5971.00,0.3314
5970.00,0.3315
5969.00,0.3316
5968.00,0.3317
5967.00,0.3318
5966.00,0.3319
5965.00,0.3320
5964.00,0.3320
5963.00,0.3321
5962.00,0.3322
5961.00,0.3323
5960.00,0.3323
5959.00,0.3324
5958.00,0.3326
5957.00,0.3327
5956.00,0.3328
5955.00,0.3329
5954.00,0.3331
5953.00,0.3332
5952.00,0.3334
5951.00,0.3335
5950.00,0.3336
5949.00,0.3338
5948.00,0.3339
5947.00,0.3341
5946.00,0.3343
5945.00,0.3344
5944.00,0.3346
5943.00,0.3348
5942.00,0.3350
5941.00,0.3351
5940.00,0.3353
5939.00,0.3354
5938.00,0.3356
5937.00,0.3357
5936.00,0.3358
5935.00,0.3360
5934.00,0.3361
5933.00,0.3363
5932.00,0.3364
5931.00,0.3366
5930.00,0.3367
5929.00,0.3369
5928.00,0.3371
5927.00,0.3372
5926.00,0.3374
5925.00,0.3376
5924.00,0.3377
5923.00,0.3378
5922.00,0.3379
5921.00,0.3380
5920.00,0.3381
5919.00,0.3382
5918.00,0.3383
5917.00,0.3384
5916.00,0.3385
5915.00,0.3386
5914.00,0.3387
5913.00,0.3388
5912.00,0.3389
5911.00,0.3390
5910.00,0.3391
5909.00,0.3391
5908.00,0.3392
5907.00,0.3393
5906.00,0.3393
5905.00,0.3393
5904.00,0.3393
5903.00,0.3394
5902.00,0.3394
5901.00,0.3395
5900.00,0.3395
5899.00,0.3396
5898.00,0.3396
5897.00,0.3397
5896.00,0.3397
5895.00,0.3397
5894.00,0.3398
5893.00,0.3398
5892.00,0.3398
5891.00,0.3398
5890.00,0.3399
5889.00,0.3399
5888.00,0.3399
5887.00,0.3400
5886.00,0.3400
5885.00,0.3401
5884.00,0.3402
5883.00,0.3402
5882.00,0.3403
5881.00,0.3403
5880.00,0.3404
5879.00,0.3404
5878.00,0.3405
5877.00,0.3406
5876.00,0.3407
5875.00,0.3408
5874.00,0.3409
5873.00,0.3409
5872.00,0.3410
5871.00,0.3410
5870.00,0.3410
5869.00,0.3410
5868.00,0.3411
5867.00,0.3411
5866.00,0.3412
5865.00,0.3413
5864.00,0.3413
5863.00,0.3414
5862.00,0.3414
5861.00,0.3415
5860.00,0.3415
5859.00,0.3416
5858.00,0.3417
5857.00,0.3418
5856.00,0.3419
5855.00,0.3420
5854.00,0.3421
5853.00,0.3422
5852.00,0.3422
5851.00,0.3423
5850.00,0.3424
5849.00,0.3425
5848.00,0.3426
5847.00,0.3427
5846.00,0.3428
5845.00,0.3429
5844.00,0.3430
5843.00,0.3431
5842.00,0.3432
5841.00,0.3433
5840.00,0.3434
5839.00,0.3435
5838.00,0.3436
5837.00,0.3437
5836.00,0.3438
5835.00,0.3439
5834.00,0.3441
5833.00,0.3442
5832.00,0.3443
5831.00,0.3445
5830.00,0.3446
5829.00,0.3447
5828.00,0.3448
5827.00,0.3449
5826.00,0.3450
5825.00,0.3451
5824.00,0.3453
5823.00,0.3454
5822.00,0.3456
5821.00,0.3457
5820.00,0.3458
5819.00,0.3459
5818.00,0.3460
5817.00,0.3461
5816.00,0.3461
5815.00,0.3463
5814.00,0.3464
5813.00,0.3465
5812.00,0.3467
5811.00,0.3469
5810.00,0.3470
5809.00,0.3472
5808.00,0.3474
5807.00,0.3475
5806.00,0.3476
5805.00,0.3477
5804.00,0.3478
5803.00,0.3479
5802.00,0.3480
5801.00,0.3481
5800.00,0.3482
5799.00,0.3483
5798.00,0.3484
5797.00,0.3485
5796.00,0.3486
5795.00,0.3486
5794.00,0.3487
5793.00,0.3488
5792.00,0.3489
5791.00,0.3491
5790.00,0.3492
5789.00,0.3493
5788.00,0.3494
5787.00,0.3495
5786.00,0.3496
5785.00,0.3496
5784.00,0.3497
5783.00,0.3498
5782.00,0.3499
5781.00,0.3499
5780.00,0.3500
5779.00,0.3501
5778.00,0.3501
5777.00,0.3502
5776.00,0.3503
5775.00,0.3503
5774.00,0.3503
5773.00,0.3504
5772.00,0.3504
5771.00,0.3504
5770.00,0.3505
5769.00,0.3505
5768.00,0.3506
5767.00,0.3506
5766.00,0.3506
5765.00,0.3506
5764.00,0.3507
5763.00,0.3507
5762.00,0.3507
5761.00,0.3508
5760.00,0.3508
5759.00,0.3508
5758.00,0.3509
5757.00,0.3509
5756.00,0.3509
5755.00,0.3510
5754.00,0.3510
5753.00,0.3510
5752.00,0.3510
5751.00,0.3510
5750.00,0.3511
5749.00,0.3511
5748.00,0.3511
5747.00,0.3511
5746.00,0.3512
5745.00,0.3512
5744.00,0.3512
5743.00,0.3513
5742.00,0.3513
5741.00,0.3514
5740.00,0.3515
5739.00,0.3515
5738.00,0.3515
5737.00,0.3515
5736.00,0.3515
5735.00,0.3515
5734.00,0.3515
5733.00,0.3516
5732.00,0.3516
5731.00,0.3516
5730.00,0.3517
5729.00,0.3517
5728.00,0.3518
5727.00,0.3518
5726.00,0.3518
5725.00,0.3518
5724.00,0.3518
5723.00,0.3519
5722.00,0.3519
5721.00,0.3519
5720.00,0.3520
5719.00,0.3520
5718.00,0.3520
5717.00,0.3520
5716.00,0.3521
5715.00,0.3521
5714.00,0.3521
5713.00,0.3521
5712.00,0.3522
5711.00,0.3522
5710.00,0.3522
5709.00,0.3522
5708.00,0.3523
5707.00,0.3523
5706.00,0.3524
5705.00,0.3524
5704.00,0.3524
5703.00,0.3524
5702.00,0.3524
5701.00,0.3524
5700.00,0.3524
5699.00,0.3524
5698.00,0.3524
5697.00,0.3524
5696.00,0.3524
5695.00,0.3525
5694.00,0.3525
5693.00,0.3526
5692.00,0.3526
5691.00,0.3527
5690.00,0.3527
5689.00,0.3527
5688.00,0.3527
5687.00,0.3527
5686.00,0.3527
5685.00,0.3528
5684.00,0.3528
5683.00,0.3529
5682.00,0.3529
5681.00,0.3529
5680.00,0.3530
5679.00,0.3530
5678.00,0.3530
5677.00,0.3529
5676.00,0.3529
5675.00,0.3529
5674.00,0.3529
5673.00,0.3529
5672.00,0.3530
5671.00,0.3530
5670.00,0.3531
5669.00,0.3531
5668.00,0.3531
5667.00,0.3531
5666.00,0.3531
5665.00,0.3530
5664.00,0.3530
5663.00,0.3529
5662.00,0.3529
5661.00,0.3529
5660.00,0.3529
5659.00,0.3528
5658.00,0.3528
5657.00,0.3528
5656.00,0.3528
5655.00,0.3528
5654.00,0.3527
5653.00,0.3527
5652.00,0.3527
5651.00,0.3527
5650.00,0.3527
5649.00,0.3527
5648.00,0.3527
5647.00,0.3527
5646.00,0.3527
5645.00,0.3527
5644.00,0.3527
5643.00,0.3527
5642.00,0.3528
5641.00,0.3528
5640.00,0.3527
5639.00,0.3527
5638.00,0.3527
5637.00,0.3527
5636.00,0.3527
5635.00,0.3527
5634.00,0.3526
5633.00,0.3526
5632.00,0.3525
5631.00,0.3525
5630.00,0.3525
5629.00,0.3524
5628.00,0.3524
5627.00,0.3525
5626.00,0.3525
5625.00,0.3525
5624.00,0.3525
5623.00,0.3525
5622.00,0.3524
5621.00,0.3523
5620.00,0.3523
5619.00,0.3522
5618.00,0.3521
5617.00,0.3521
5616.00,0.3521
5615.00,0.3520
5614.00,0.3520
5613.00,0.3519
5612.00,0.3519
5611.00,0.3519
5610.00,0.3519
5609.00,0.3518
5608.00,0.3518
5607.00,0.3517
5606.00,0.3517
5605.00,0.3517
5604.00,0.3516
5603.00,0.3516
5602.00,0.3515
5601.00,0.3515
5600.00,0.3515
5599.00,0.3514
5598.00,0.3513
5597.00,0.3513
5596.00,0.3512
5595.00,0.3512
5594.00,0.3511
5593.00,0.3511
5592.00,0.3510
5591.00,0.3510
5590.00,0.3509
5589.00,0.3508
5588.00,0.3508
5587.00,0.3507
5586.00,0.3506
5585.00,0.3505
5584.00,0.3505
5583.00,0.3504
5582.00,0.3504
5581.00,0.3504
5580.00,0.3504
5579.00,0.3503
5578.00,0.3502
5577.00,0.3502
5576.00,0.3501
5575.00,0.3500
5574.00,0.3499
5573.00,0.3499
5572.00,0.3498
5571.00,0.3497
5570.00,0.3496
5569.00,0.3495
5568.00,0.3494
5567.00,0.3493
5566.00,0.3493
5565.00,0.3492
5564.00,0.3491
5563.00,0.3490
5562.00,0.3489
5561.00,0.3489
5560.00,0.3488
5559.00,0.3487
5558.00,0.3487
5557.00,0.3486
5556.00,0.3486
5555.00,0.3485
5554.00,0.3484
5553.00,0.3484
5552.00,0.3483
5551.00,0.3482
5550.00,0.3481
5549.00,0.3480
5548.00,0.3479
5547.00,0.3478
5546.00,0.3477
5545.00,0.3476
5544.00,0.3475
5543.00,0.3475
5542.00,0.3474
5541.00,0.3474
5540.00,0.3473
5539.00,0.3472
5538.00,0.3471
5537.00,0.3471
5536.00,0.3470
5535.00,0.3469
5534.00,0.3468
5533.00,0.3467
5532.00,0.3466
5531.00,0.3465
5530.00,0.3464
5529.00,0.3463
5528.00,0.3463
5527.00,0.3463
5526.00,0.3463
5525.00,0.3462
5524.00,0.3462
5523.00,0.3461
5522.00,0.3460
5521.00,0.3459
5520.00,0.3458
5519.00,0.3458
5518.00,0.3457
5517.00,0.3457
5516.00,0.3456
5515.00,0.3455
5514.00,0.3455
5513.00,0.3455
5512.00,0.3455
5511.00,0.3455
5510.00,0.3455
5509.00,0.3454
5508.00,0.3452
5507.00,0.3451
5506.00,0.3449
5505.00,0.3448
5504.00,0.3448
5503.00,0.3448
5502.00,0.3448
5501.00,0.3447
5500.00,0.3446
5499.00,0.3446
5498.00,0.3446
5497.00,0.3447
5496.00,0.3448
5495.00,0.3448
5494.00,0.3447
5493.00,0.3447
5492.00,0.3445
5491.00,0.3443
5490.00,0.3441
5489.00,0.3439
5488.00,0.3439
5487.00,0.3437
5486.00,0.3436
5485.00,0.3436
5484.00,0.3435
5483.00,0.3435
5482.00,0.3435
5481.00,0.3436
5480.00,0.3437
5479.00,0.3438
5478.00,0.3437
5477.00,0.3435
5476.00,0.3433
5475.00,0.3430
5474.00,0.3428
5473.00,0.3427
5472.00,0.3428
5471.00,0.3428
5470.00,0.3429
5469.00,0.3428
5468.00,0.3426
5467.00,0.3425
5466.00,0.3424
5465.00,0.3424
5464.00,0.3424
5463.00,0.3423
5462.00,0.3422
5461.00,0.3420
5460.00,0.3418
5459.00,0.3416
5458.00,0.3415
5457.00,0.3413
5456.00,0.3412
5455.00,0.3412
5454.00,0.3412
5453.00,0.3412
5452.00,0.3412
5451.00,0.3412
5450.00,0.3412
5449.00,0.3411
5448.00,0.3409
5447.00,0.3407
5446.00,0.3407
5445.00,0.3406
5444.00,0.3405
5443.00,0.3402
5442.00,0.3399
5441.00,0.3397
5440.00,0.3397
5439.00,0.3396
5438.00,0.3396
5437.00,0.3395
5436.00,0.3394
5435.00,0.3394
5434.00,0.3393
5433.00,0.3393
5432.00,0.3392
5431.00,0.3391
5430.00,0.3389
5429.00,0.3386
5428.00,0.3382
5427.00,0.3379
5426.00,0.3377
5425.00,0.3376
5424.00,0.3376
5423.00,0.3376
5422.00,0.3375
5421.00,0.3374
5420.00,0.3374
5419.00,0.3375
5418.00,0.3377
5417.00,0.3378
5416.00,0.3378
5415.00,0.3378
5414.00,0.3377
5413.00,0.3374
5412.00,0.3370
5411.00,0.3367
5410.00,0.3364
5409.00,0.3363
5408.00,0.3361
5407.00,0.3360
5406.00,0.3360
5405.00,0.3360
5404.00,0.3359
5403.00,0.3358
5402.00,0.3358
5401.00,0.3358
5400.00,0.3359
5399.00,0.3360
5398.00,0.3362
5397.00,0.3362
5396.00,0.3361
5395.00,0.3359
5394.00,0.3356
5393.00,0.3354
5392.00,0.3353
5391.00,0.3353
5390.00,0.3355
5389.00,0.3357
5388.00,0.3357
5387.00,0.3356
5386.00,0.3354
5385.00,0.3352
5384.00,0.3351
5383.00,0.3351
5382.00,0.3353
5381.00,0.3357
5380.00,0.3359
5379.00,0.3360
5378.00,0.3360
5377.00,0.3358
5376.00,0.3356
5375.00,0.3354
5374.00,0.3353
5373.00,0.3353
5372.00,0.3353
5371.00,0.3354
5370.00,0.3355
5369.00,0.3356
5368.00,0.3358
5367.00,0.3360
5366.00,0.3361
5365.00,0.3361
5364.00,0.3361
5363.00,0.3361
5362.00,0.3361
5361.00,0.3362
5360.00,0.3364
5359.00,0.3368
5358.00,0.3372
5357.00,0.3376
5356.00,0.3378
5355.00,0.3379
5354.00,0.3378
5353.00,0.3378
5352.00,0.3378
5351.00,0.3380
5350.00,0.3383
5349.00,0.3388
5348.00,0.3393
5347.00,0.3395
5346.00,0.3394
5345.00,0.3394
5344.00,0.3395
5343.00,0.3398
5342.00,0.3401
5341.00,0.3405
5340.00,0.3408
5339.00,0.3411
5338.00,0.3411
5337.00,0.3412
5336.00,0.3413
5335.00,0.3416
5334.00,0.3419
5333.00,0.3424
5332.00,0.3429
5331.00,0.3433
5330.00,0.3436
5329.00,0.3438
5328.00,0.3441
5327.00,0.3444
5326.00,0.3446
5325.00,0.3449
5324.00,0.3453
5323.00,0.3457
5322.00,0.3463
5321.00,0.3468
5320.00,0.3472
5319.00,0.3477
5318.00,0.3482
5317.00,0.3487
5316.00,0.3492
5315.00,0.3497
5314.00,0.3503
5313.00,0.3509
5312.00,0.3516
5311.00,0.3524
5310.00,0.3531
5309.00,0.3537
5308.00,0.3543
5307.00,0.3549
5306.00,0.3555
5305.00,0.3562
5304.00,0.3569
5303.00,0.3578
5302.00,0.3586
5301.00,0.3594
5300.00,0.3602
5299.00,0.3610
5298.00,0.3619
5297.00,0.3627
5296.00,0.3637
5295.00,0.3647
5294.00,0.3658
5293.00,0.3669
5292.00,0.3678
5291.00,0.3688
5290.00,0.3698
5289.00,0.3709
5288.00,0.3719
5287.00,0.3731
5286.00,0.3743
5285.00,0.3755
5284.00,0.3768
5283.00,0.3780
5282.00,0.3791
5281.00,0.3804
5280.00,0.3817
5279.00,0.3831
5278.00,0.3844
5277.00,0.3858
5276.00,0.3872
5275.00,0.3886
5274.00,0.3901
5273.00,0.3917
5272.00,0.3932
5271.00,0.3947
5270.00,0.3964
5269.00,0.3980
5268.00,0.3997
5267.00,0.4014
5266.00,0.4031
5265.00,0.4047
5264.00,0.4062
5263.00,0.4077
5262.00,0.4091
5261.00,0.4105
5260.00,0.4122
5259.00,0.4139
5258.00,0.4157
5257.00,0.4174
5256.00,0.4190
5255.00,0.4206
5254.00,0.4222
5253.00,0.4238
5252.00,0.4255
5251.00,0.4272
5250.00,0.4290
5249.00,0.4309
5248.00,0.4326
5247.00,0.4341
5246.00,0.4355
5245.00,0.4369
5244.00,0.4383
5243.00,0.4399
5242.00,0.4413
5241.00,0.4427
5240.00,0.4442
5239.00,0.4457
5238.00,0.4473
5237.00,0.4488
5236.00,0.4502
5235.00,0.4517
5234.00,0.4532
5233.00,0.4546
5232.00,0.4559
5231.00,0.4573
5230.00,0.4587
5229.00,0.4601
5228.00,0.4614
5227.00,0.4627
5226.00,0.4639
5225.00,0.4651
5224.00,0.4661
5223.00,0.4672
5222.00,0.4683
5221.00,0.4696
5220.00,0.4708
5219.00,0.4719
5218.00,0.4730
5217.00,0.4740
5216.00,0.4750
5215.00,0.4761
5214.00,0.4772
5213.00,0.4783
5212.00,0.4794
5211.00,0.4806
5210.00,0.4816
5209.00,0.4825
5208.00,0.4833
5207.00,0.4840
5206.00,0.4846
5205.00,0.4852
5204.00,0.4859
5203.00,0.4866
5202.00,0.4875
5201.00,0.4883
5200.00,0.4891
5199.00,0.4898
5198.00,0.4904
5197.00,0.4910
5196.00,0.4916
5195.00,0.4921
5194.00,0.4928
5193.00,0.4934
5192.00,0.4940
5191.00,0.4946
5190.00,0.4951
5189.00,0.4955
5188.00,0.4960
5187.00,0.4964
5186.00,0.4967
5185.00,0.4970
5184.00,0.4973
5183.00,0.4975
5182.00,0.4977
5181.00,0.4980
5180.00,0.4982
5179.00,0.4984
5178.00,0.4986
5177.00,0.4988
5176.00,0.4990
5175.00,0.4992
5174.00,0.4993
5173.00,0.4994
5172.00,0.4994
5171.00,0.4995
5170.00,0.4995
5169.00,0.4995
5168.00,0.4996
5167.00,0.4996
5166.00,0.4996
5165.00,0.4996
5164.00,0.4995
5163.00,0.4993
5162.00,0.4992
5161.00,0.4991
5160.00,0.4990
5159.00,0.4989
5158.00,0.4988
5157.00,0.4985
5156.00,0.4983
5155.00,0.4981
5154.00,0.4979
5153.00,0.4976
5152.00,0.4974
5151.00,0.4971
5150.00,0.4968
5149.00,0.4965
5148.00,0.4963
5147.00,0.4960
5146.00,0.4958
5145.00,0.4955
5144.00,0.4951
5143.00,0.4948
5142.00,0.4943
5141.00,0.4939
5140.00,0.4935
5139.00,0.4932
5138.00,0.4929
5137.00,0.4925
5136.00,0.4921
5135.00,0.4917
5134.00,0.4913
5133.00,0.4909
5132.00,0.4904
5131.00,0.4900
5130.00,0.4896
5129.00,0.4891
5128.00,0.4887
5127.00,0.4883
5126.00,0.4878
5125.00,0.4874
5124.00,0.4870
5123.00,0.4866
5122.00,0.4862
5121.00,0.4857
5120.00,0.4853
5119.00,0.4849
5118.00,0.4844
5117.00,0.4840
5116.00,0.4835
5115.00,0.4831
5114.00,0.4826
5113.00,0.4821
5112.00,0.4817
5111.00,0.4813
5110.00,0.4809
5109.00,0.4805
5108.00,0.4800
5107.00,0.4796
5106.00,0.4791
5105.00,0.4787
5104.00,0.4782
5103.00,0.4778
5102.00,0.4774
5101.00,0.4770
5100.00,0.4766
5099.00,0.4762
5098.00,0.4758
5097.00,0.4753
5096.00,0.4750
5095.00,0.4746
5094.00,0.4742
5093.00,0.4738
5092.00,0.4734
5091.00,0.4730
5090.00,0.4725
5089.00,0.4721
5088.00,0.4717
5087.00,0.4714
5086.00,0.4710
5085.00,0.4707
5084.00,0.4704
5083.00,0.4701
5082.00,0.4697
5081.00,0.4694
5080.00,0.4690
5079.00,0.4687
5078.00,0.4683
5077.00,0.4680
5076.00,0.4677
5075.00,0.4673
5074.00,0.4670
5073.00,0.4667
5072.00,0.4663
5071.00,0.4660
5070.00,0.4656
5069.00,0.4653
5068.00,0.4649
5067.00,0.4646
5066.00,0.4643
5065.00,0.4639
5064.00,0.4635
5063.00,0.4632
5062.00,0.4629
5061.00,0.4625
5060.00,0.4622
5059.00,0.4619
5058.00,0.4615
5057.00,0.4611
5056.00,0.4607
5055.00,0.4603
5054.00,0.4599
5053.00,0.4595
5052.00,0.4591
5051.00,0.4587
5050.00,0.4582
5049.00,0.4578
5048.00,0.4573
5047.00,0.4569
5046.00,0.4565
5045.00,0.4560
5044.00,0.4556
5043.00,0.4552
5042.00,0.4548
5041.00,0.4543
5040.00,0.4539
5039.00,0.4534
5038.00,0.4529
5037.00,0.4525
5036.00,0.4520
5035.00,0.4516
5034.00,0.4511
5033.00,0.4507
5032.00,0.4502
5031.00,0.4498
5030.00,0.4493
5029.00,0.4488
5028.00,0.4483
5027.00,0.4478
5026.00,0.4474
5025.00,0.4469
5024.00,0.4465
5023.00,0.4460
5022.00,0.4456
5021.00,0.4451
5020.00,0.4446
5019.00,0.4442
5018.00,0.4438
5017.00,0.4433
5016.00,0.4430
5015.00,0.4426
5014.00,0.4422
5013.00,0.4418
5012.00,0.4414
5011.00,0.4411
5010.00,0.4407
5009.00,0.4403
5008.00,0.4399
5007.00,0.4395
5006.00,0.4392
5005.00,0.4388
5004.00,0.4385
5003.00,0.4381
5002.00,0.4378
5001.00,0.4375
5000.00,0.4372
4999.00,0.4369
4998.00,0.4366
4997.00,0.4364
4996.00,0.4361
4995.00,0.4359
4994.00,0.4357
4993.00,0.4355
4992.00,0.4352
4991.00,0.4350
4990.00,0.4349
4989.00,0.4347
4988.00,0.4346
4987.00,0.4344
4986.00,0.4343
4985.00,0.4342
4984.00,0.4340
4983.00,0.4339
4982.00,0.4338
4981.00,0.4337
4980.00,0.4336
4979.00,0.4336
4978.00,0.4335
4977.00,0.4335
4976.00,0.4335
4975.00,0.4335
4974.00,0.4335
4973.00,0.4336
4972.00,0.4336
4971.00,0.4337
4970.00,0.4338
4969.00,0.4339
4968.00,0.4340
4967.00,0.4342
4966.00,0.4343
4965.00,0.4345
4964.00,0.4346
4963.00,0.4348
4962.00,0.4350
4961.00,0.4352
4960.00,0.4354
4959.00,0.4356
4958.00,0.4359
4957.00,0.4362
4956.00,0.4364
4955.00,0.4367
4954.00,0.4370
4953.00,0.4373
4952.00,0.4375
4951.00,0.4379
4950.00,0.4382
4949.00,0.4386
4948.00,0.4390
4947.00,0.4394
4946.00,0.4399
4945.00,0.4403
4944.00,0.4407
4943.00,0.4412
4942.00,0.4417
4941.00,0.4421
4940.00,0.4426
4939.00,0.4431
4938.00,0.4435
4937.00,0.4440
4936.00,0.4445
4935.00,0.4450
4934.00,0.4456
4933.00,0.4461
4932.00,0.4466
4931.00,0.4471
4930.00,0.4477
4929.00,0.4482
4928.00,0.4488
4927.00,0.4494
4926.00,0.4500
4925.00,0.4505
4924.00,0.4511
4923.00,0.4518
4922.00,0.4524
4921.00,0.4531
4920.00,0.4538
4919.00,0.4544
4918.00,0.4551
4917.00,0.4557
4916.00,0.4564
4915.00,0.4571
4914.00,0.4578
4913.00,0.4585
4912.00,0.4593
4911.00,0.4600
4910.00,0.4607
4909.00,0.4615
4908.00,0.4622
4907.00,0.4629
4906.00,0.4637
4905.00,0.4644
4904.00,0.4651
4903.00,0.4658
4902.00,0.4666
4901.00,0.4673
4900.00,0.4681
4899.00,0.4689
4898.00,0.4696
4897.00,0.4704
4896.00,0.4711
4895.00,0.4719
4894.00,0.4726
4893.00,0.4734
4892.00,0.4742
4891.00,0.4751
4890.00,0.4759
4889.00,0.4767
4888.00,0.4775
4887.00,0.4782
4886.00,0.4789
4885.00,0.4797
4884.00,0.4804
4883.00,0.4812
4882.00,0.4820
4881.00,0.4828
4880.00,0.4836
4879.00,0.4843
4878.00,0.4850
4877.00,0.4858
4876.00,0.4866
4875.00,0.4875
4874.00,0.4883
4873.00,0.4891
4872.00,0.4899
4871.00,0.4907
4870.00,0.4915
4869.00,0.4922
4868.00,0.4929
4867.00,0.4936
4866.00,0.4944
4865.00,0.4951
4864.00,0.4958
4863.00,0.4966
4862.00,0.4973
4861.00,0.4981
4860.00,0.4988
4859.00,0.4995
4858.00,0.5002
4857.00,0.5009
4856.00,0.5016
4855.00,0.5023
4854.00,0.5030
4853.00,0.5037
4852.00,0.5044
4851.00,0.5051
4850.00,0.5057
4849.00,0.5064
4848.00,0.5070
4847.00,0.5077
4846.00,0.5083
4845.00,0.5090
4844.00,0.5096
4843.00,0.5103
4842.00,0.5110
4841.00,0.5116
4840.00,0.5123
4839.00,0.5129
4838.00,0.5135
4837.00,0.5141
4836.00,0.5147
4835.00,0.5153
4834.00,0.5160
4833.00,0.5166
4832.00,0.5173
4831.00,0.5179
4830.00,0.5185
4829.00,0.5191
4828.00,0.5196
4827.00,0.5202
4826.00,0.5207
4825.00,0.5213
4824.00,0.5219
4823.00,0.5224
4822.00,0.5229
4821.00,0.5234
4820.00,0.5239
4819.00,0.5245
4818.00,0.5250
4817.00,0.5255
4816.00,0.5260
4815.00,0.5265
4814.00,0.5270
4813.00,0.5274
4812.00,0.5278
4811.00,0.5283
4810.00,0.5287
4809.00,0.5291
4808.00,0.5295
4807.00,0.5299
4806.00,0.5303
4805.00,0.5307
4804.00,0.5311
4803.00,0.5316
4802.00,0.5320
4801.00,0.5323
4800.00,0.5327
4799.00,0.5331
4798.00,0.5334
4797.00,0.5338
4796.00,0.5342
4795.00,0.5345
4794.00,0.5349
4793.00,0.5352
4792.00,0.5355
4791.00,0.5358
4790.00,0.5361
4789.00,0.5364
4788.00,0.5367
4787.00,0.5371
4786.00,0.5373
4785.00,0.5376
4784.00,0.5378
4783.00,0.5380
4782.00,0.5383
4781.00,0.5385
4780.00,0.5387
4779.00,0.5390
4778.00,0.5392
4777.00,0.5395
4776.00,0.5397
4775.00,0.5399
4774.00,0.5401
4773.00,0.5403
4772.00,0.5405
4771.00,0.5406
4770.00,0.5408
4769.00,0.5410
4768.00,0.5412
4767.00,0.5414
4766.00,0.5415
4765.00,0.5416
4764.00,0.5417
4763.00,0.5417
4762.00,0.5418
4761.00,0.5419
4760.00,0.5421
4759.00,0.5422
4758.00,0.5423
4757.00,0.5423
4756.00,0.5424
4755.00,0.5424
4754.00,0.5424
4753.00,0.5425
4752.00,0.5425
4751.00,0.5426
4750.00,0.5426
4749.00,0.5426
4748.00,0.5426
4747.00,0.5426
4746.00,0.5426
4745.00,0.5426
4744.00,0.5425
4743.00,0.5425
4742.00,0.5424
4741.00,0.5423
4740.00,0.5422
4739.00,0.5421
4738.00,0.5420
4737.00,0.5419
4736.00,0.5418
4735.00,0.5417
4734.00,0.5416
4733.00,0.5416
4732.00,0.5415
4731.00,0.5414
4730.00,0.5412
4729.00,0.5410
4728.00,0.5408
4727.00,0.5406
4726.00,0.5404
4725.00,0.5402
4724.00,0.5400
4723.00,0.5398
4722.00,0.5396
4721.00,0.5394
4720.00,0.5392
4719.00,0.5390
4718.00,0.5388
4717.00,0.5386
4716.00,0.5383
4715.00,0.5381
4714.00,0.5378
4713.00,0.5375
4712.00,0.5371
4711.00,0.5368
4710.00,0.5366
4709.00,0.5363
4708.00,0.5361
4707.00,0.5358
4706.00,0.5356
4705.00,0.5354
4704.00,0.5351
4703.00,0.5348
4702.00,0.5345
4701.00,0.5341
4700.00,0.5338
4699.00,0.5336
4698.00,0.5333
4697.00,0.5331
4696.00,0.5328
4695.00,0.5326
4694.00,0.5323
4693.00,0.5320
4692.00,0.5318
4691.00,0.5315
4690.00,0.5312
4689.00,0.5309
4688.00,0.5306
4687.00,0.5303
4686.00,0.5300
4685.00,0.5297
4684.00,0.5294
4683.00,0.5292
4682.00,0.5289
4681.00,0.5286
4680.00,0.5283
4679.00,0.5281
4678.00,0.5278
4677.00,0.5275
4676.00,0.5272
4675.00,0.5270
4674.00,0.5267
4673.00,0.5264
4672.00,0.5262
4671.00,0.5259
4670.00,0.5256
4669.00,0.5253
4668.00,0.5251
4667.00,0.5248
4666.00,0.5245
4665.00,0.5243
4664.00,0.5239
4663.00,0.5236
4662.00,0.5233
4661.00,0.5230
4660.00,0.5228
4659.00,0.5225
4658.00,0.5223
4657.00,0.5220
4656.00,0.5218
4655.00,0.5215
4654.00,0.5213
4653.00,0.5210
4652.00,0.5207
4651.00,0.5204
4650.00,0.5201
4649.00,0.5198
4648.00,0.5195
4647.00,0.5192
4646.00,0.5190
4645.00,0.5187
4644.00,0.5185
4643.00,0.5183
4642.00,0.5181
4641.00,0.5179
4640.00,0.5176
4639.00,0.5173
4638.00,0.5171
4637.00,0.5167
4636.00,0.5164
4635.00,0.5161
4634.00,0.5158
4633.00,0.5155
4632.00,0.5153
4631.00,0.5151
4630.00,0.5149
4629.00,0.5147
4628.00,0.5145
4627.00,0.5142
4626.00,0.5140
4625.00,0.5139
4624.00,0.5137
4623.00,0.5136
4622.00,0.5134
4621.00,0.5132
4620.00,0.5130
4619.00,0.5128
4618.00,0.5126
4617.00,0.5125
4616.00,0.5123
4615.00,0.5121
4614.00,0.5119
4613.00,0.5117
4612.00,0.5115
4611.00,0.5114
4610.00,0.5112
4609.00,0.5111
4608.00,0.5109
4607.00,0.5108
4606.00,0.5106
4605.00,0.5104
4604.00,0.5103
4603.00,0.5101
4602.00,0.5098
4601.00,0.5096
4600.00,0.5095
4599.00,0.5093
4598.00,0.5092
4597.00,0.5090
4596.00,0.5089
4595.00,0.5088
4594.00,0.5087
4593.00,0.5086
4592.00,0.5085
4591.00,0.5083
4590.00,0.5082
4589.00,0.5081
4588.00,0.5080
4587.00,0.5079
4586.00,0.5078
4585.00,0.5077
4584.00,0.5076
4583.00,0.5075
4582.00,0.5073
4581.00,0.5072
4580.00,0.5070
4579.00,0.5069
4578.00,0.5068
4577.00,0.5066
4576.00,0.5065
4575.00,0.5064
4574.00,0.5062
4573.00,0.5061
4572.00,0.5060
4571.00,0.5058
4570.00,0.5057
4569.00,0.5055
4568.00,0.5054
4567.00,0.5053
4566.00,0.5052
4565.00,0.5051
4564.00,0.5049
4563.00,0.5048
4562.00,0.5046
4561.00,0.5045
4560.00,0.5044
4559.00,0.5042
4558.00,0.5041
4557.00,0.5039
4556.00,0.5038
4555.00,0.5036
4554.00,0.5034
4553.00,0.5032
4552.00,0.5030
4551.00,0.5028
4550.00,0.5026
4549.00,0.5025
4548.00,0.5023
4547.00,0.5021
4546.00,0.5019
4545.00,0.5017
4544.00,0.5015
4543.00,0.5013
4542.00,0.5011
4541.00,0.5008
4540.00,0.5006
4539.00,0.5004
4538.00,0.5002
4537.00,0.5000
4536.00,0.4999
4535.00,0.4997
4534.00,0.4994
4533.00,0.4992
4532.00,0.4989
4531.00,0.4987
4530.00,0.4985
4529.00,0.4983
4528.00,0.4981
4527.00,0.4979
4526.00,0.4977
4525.00,0.4974
4524.00,0.4971
4523.00,0.4969
4522.00,0.4966
4521.00,0.4963
4520.00,0.4960
4519.00,0.4957
4518.00,0.4954
4517.00,0.4951
4516.00,0.4949
4515.00,0.4946
4514.00,0.4944
4513.00,0.4941
4512.00,0.4938
4511.00,0.4936
4510.00,0.4934
4509.00,0.4932
4508.00,0.4929
4507.00,0.4927
4506.00,0.4924
4505.00,0.4922
4504.00,0.4921
4503.00,0.4919
4502.00,0.4917
4501.00,0.4915
4500.00,0.4913
4499.00,0.4911
4498.00,0.4909
4497.00,0.4908
4496.00,0.4907
4495.00,0.4905
4494.00,0.4904
4493.00,0.4903
4492.00,0.4903
4491.00,0.4902
4490.00,0.4902
4489.00,0.4902
4488.00,0.4902
4487.00,0.4901
4486.00,0.4901
4485.00,0.4901
4484.00,0.4902
4483.00,0.4903
4482.00,0.4904
4481.00,0.4905
4480.00,0.4907
4479.00,0.4908
4478.00,0.4909
4477.00,0.4911
4476.00,0.4913
4475.00,0.4916
4474.00,0.4918
4473.00,0.4921
4472.00,0.4924
4471.00,0.4928
4470.00,0.4931
4469.00,0.4935
4468.00,0.4939
4467.00,0.4942
4466.00,0.4947
4465.00,0.4951
4464.00,0.4956
4463.00,0.4960
4462.00,0.4964
4461.00,0.4969
4460.00,0.4973
4459.00,0.4978
4458.00,0.4983
4457.00,0.4988
4456.00,0.4993
4455.00,0.4999
4454.00,0.5004
4453.00,0.5009
4452.00,0.5013
4451.00,0.5018
4450.00,0.5023
4449.00,0.5028
4448.00,0.5034
4447.00,0.5040
4446.00,0.5045
4445.00,0.5051
4444.00,0.5056
4443.00,0.5062
4442.00,0.5068
4441.00,0.5073
4440.00,0.5078
4439.00,0.5083
4438.00,0.5089
4437.00,0.5096
4436.00,0.5102
4435.00,0.5109
4434.00,0.5116
4433.00,0.5123
4432.00,0.5130
4431.00,0.5137
4430.00,0.5144
4429.00,0.5152
4428.00,0.5159
4427.00,0.5167
4426.00,0.5175
4425.00,0.5183
4424.00,0.5191
4423.00,0.5198
4422.00,0.5206
4421.00,0.5213
4420.00,0.5221
4419.00,0.5228
4418.00,0.5236
4417.00,0.5243
4416.00,0.5249
4415.00,0.5256
4414.00,0.5263
4413.00,0.5269
4412.00,0.5276
4411.00,0.5283
4410.00,0.5289
4409.00,0.5295
4408.00,0.5300
4407.00,0.5306
4406.00,0.5311
4405.00,0.5316
4404.00,0.5320
4403.00,0.5325
4402.00,0.5329
4401.00,0.5333
4400.00,0.5337
4399.00,0.5340
4398.00,0.5342
4397.00,0.5344
4396.00,0.5345
4395.00,0.5347
4394.00,0.5348
4393.00,0.5349
4392.00,0.5350
4391.00,0.5350
4390.00,0.5350
4389.00,0.5350
4388.00,0.5349
4387.00,0.5348
4386.00,0.5346
4385.00,0.5345
4384.00,0.5343
4383.00,0.5341
4382.00,0.5339
4381.00,0.5337
4380.00,0.5335
4379.00,0.5332
4378.00,0.5330
4377.00,0.5327
4376.00,0.5325
4375.00,0.5322
4374.00,0.5319
4373.00,0.5316
4372.00,0.5313
4371.00,0.5310
4370.00,0.5307
4369.00,0.5305
4368.00,0.5302
4367.00,0.5299
4366.00,0.5297
4365.00,0.5294
4364.00,0.5292
4363.00,0.5291
4362.00,0.5289
4361.00,0.5288
4360.00,0.5286
4359.00,0.5285
4358.00,0.5284
4357.00,0.5283
4356.00,0.5283
4355.00,0.5283
4354.00,0.5283
4353.00,0.5283
4352.00,0.5284
4351.00,0.5285
4350.00,0.5287
4349.00,0.5289
4348.00,0.5291
4347.00,0.5293
4346.00,0.5295
4345.00,0.5296
4344.00,0.5298
4343.00,0.5300
4342.00,0.5302
4341.00,0.5305
4340.00,0.5308
4339.00,0.5311
4338.00,0.5314
4337.00,0.5317
4336.00,0.5320
4335.00,0.5324
4334.00,0.5328
4333.00,0.5332
4332.00,0.5336
4331.00,0.5340
4330.00,0.5344
4329.00,0.5347
4328.00,0.5350
4327.00,0.5353
4326.00,0.5356
4325.00,0.5359
4324.00,0.5363
4323.00,0.5367
4322.00,0.5370
4321.00,0.5373
4320.00,0.5376
4319.00,0.5379
4318.00,0.5382
4317.00,0.5385
4316.00,0.5388
4315.00,0.5391
4314.00,0.5394
4313.00,0.5397
4312.00,0.5399
4311.00,0.5401
4310.00,0.5403
4309.00,0.5406
4308.00,0.5408
4307.00,0.5411
4306.00,0.5414
4305.00,0.5416
4304.00,0.5418
4303.00,0.5420
4302.00,0.5422
4301.00,0.5424
4300.00,0.5425
4299.00,0.5426
4298.00,0.5427
4297.00,0.5427
4296.00,0.5428
4295.00,0.5429
4294.00,0.5430
4293.00,0.5430
4292.00,0.5430
4291.00,0.5431
4290.00,0.5430
4289.00,0.5430
4288.00,0.5429
4287.00,0.5428
4286.00,0.5427
4285.00,0.5426
4284.00,0.5425
4283.00,0.5424
4282.00,0.5423
4281.00,0.5423
4280.00,0.5422
4279.00,0.5421
4278.00,0.5421
4277.00,0.5420
4276.00,0.5420
4275.00,0.5419
4274.00,0.5418
4273.00,0.5417
4272.00,0.5416
4271.00,0.5415
4270.00,0.5415
4269.00,0.5415
4268.00,0.5415
4267.00,0.5415
4266.00,0.5415
4265.00,0.5415
4264.00,0.5415
4263.00,0.5415
4262.00,0.5415
4261.00,0.5416
4260.00,0.5416
4259.00,0.5417
4258.00,0.5417
4257.00,0.5417
4256.00,0.5416
4255.00,0.5416
4254.00,0.5416
4253.00,0.5416
4252.00,0.5417
4251.00,0.5417
4250.00,0.5418
4249.00,0.5418
4248.00,0.5418
4247.00,0.5418
4246.00,0.5419
4245.00,0.5419
4244.00,0.5419
4243.00,0.5420
4242.00,0.5421
4241.00,0.5422
4240.00,0.5423
4239.00,0.5424
4238.00,0.5425
4237.00,0.5425
4236.00,0.5425
4235.00,0.5426
4234.00,0.5426
4233.00,0.5426
4232.00,0.5426
4231.00,0.5426
4230.00,0.5426
4229.00,0.5427
4228.00,0.5428
4227.00,0.5429
4226.00,0.5429
4225.00,0.5429
4224.00,0.5428
4223.00,0.5428
4222.00,0.5427
4221.00,0.5427
4220.00,0.5427
4219.00,0.5427
4218.00,0.5426
4217.00,0.5426
4216.00,0.5426
4215.00,0.5425
4214.00,0.5425
4213.00,0.5425
4212.00,0.5424
4211.00,0.5424
4210.00,0.5424
4209.00,0.5425
4208.00,0.5425
4207.00,0.5424
4206.00,0.5424
4205.00,0.5423
4204.00,0.5422
4203.00,0.5421
4202.00,0.5420
4201.00,0.5419
4200.00,0.5419
4199.00,0.5419
4198.00,0.5419
4197.00,0.5420
4196.00,0.5421
4195.00,0.5421
4194.00,0.5422
4193.00,0.5423
4192.00,0.5424
4191.00,0.5425
4190.00,0.5426
4189.00,0.5427
4188.00,0.5429
4187.00,0.5431
4186.00,0.5434
4185.00,0.5435
4184.00,0.5437
4183.00,0.5439
4182.00,0.5441
4181.00,0.5444
4180.00,0.5446
4179.00,0.5449
4178.00,0.5453
4177.00,0.5456
4176.00,0.5459
4175.00,0.5462
4174.00,0.5465
4173.00,0.5468
4172.00,0.5471
4171.00,0.5474
4170.00,0.5477
4169.00,0.5480
4168.00,0.5484
4167.00,0.5488
4166.00,0.5493
4165.00,0.5498
4164.00,0.5503
4163.00,0.5508
4162.00,0.5513
4161.00,0.5518
4160.00,0.5523
4159.00,0.5528
4158.00,0.5534
4157.00,0.5540
4156.00,0.5546
4155.00,0.5551
4154.00,0.5557
4153.00,0.5564
4152.00,0.5571
4151.00,0.5579
4150.00,0.5587
4149.00,0.5594
4148.00,0.5600
4147.00,0.5607
4146.00,0.5614
4145.00,0.5621
4144.00,0.5628
4143.00,0.5635
4142.00,0.5643
4141.00,0.5650
4140.00,0.5657
4139.00,0.5664
4138.00,0.5672
4137.00,0.5680
4136.00,0.5689
4135.00,0.5698
4134.00,0.5706
4133.00,0.5713
4132.00,0.5721
4131.00,0.5729
4130.00,0.5738
4129.00,0.5748
4128.00,0.5758
4127.00,0.5769
4126.00,0.5780
4125.00,0.5790
4124.00,0.5801
4123.00,0.5810
4122.00,0.5819
4121.00,0.5828
4120.00,0.5838
4119.00,0.5848
4118.00,0.5858
4117.00,0.5869
4116.00,0.5880
4115.00,0.5890
4114.00,0.5900
4113.00,0.5911
4112.00,0.5922
4111.00,0.5932
4110.00,0.5943
4109.00,0.5954
4108.00,0.5965
4107.00,0.5976
4106.00,0.5987
4105.00,0.5998
4104.00,0.6010
4103.00,0.6022
4102.00,0.6034
4101.00,0.6045
4100.00,0.6057
4099.00,0.6069
4098.00,0.6082
4097.00,0.6095
4096.00,0.6108
4095.00,0.6121
4094.00,0.6133
4093.00,0.6145
4092.00,0.6157
4091.00,0.6170
4090.00,0.6183
4089.00,0.6196
4088.00,0.6209
4087.00,0.6222
4086.00,0.6234
4085.00,0.6247
4084.00,0.6261
4083.00,0.6274
4082.00,0.6288
4081.00,0.6302
4080.00,0.6315
4079.00,0.6328
4078.00,0.6340
4077.00,0.6352
4076.00,0.6363
4075.00,0.6376
4074.00,0.6390
4073.00,0.6405
4072.00,0.6419
4071.00,0.6433
4070.00,0.6446
4069.00,0.6458
4068.00,0.6471
4067.00,0.6484
4066.00,0.6498
4065.00,0.6512
4064.00,0.6526
4063.00,0.6541
4062.00,0.6555
4061.00,0.6569
4060.00,0.6583
4059.00,0.6596
4058.00,0.6609
4057.00,0.6621
4056.00,0.6633
4055.00,0.6645
4054.00,0.6658
4053.00,0.6671
4052.00,0.6684
4051.00,0.6697
4050.00,0.6710
4049.00,0.6724
4048.00,0.6737
4047.00,0.6751
4046.00,0.6765
4045.00,0.6778
4044.00,0.6790
4043.00,0.6801
4042.00,0.6813
4041.00,0.6824
4040.00,0.6836
4039.00,0.6847
4038.00,0.6859
4037.00,0.6870
4036.00,0.6880
4035.00,0.6890
4034.00,0.6899
4033.00,0.6907
4032.00,0.6915
4031.00,0.6923
4030.00,0.6933
4029.00,0.6943
4028.00,0.6954
4027.00,0.6963
4026.00,0.6971
4025.00,0.6978
4024.00,0.6983
4023.00,0.6989
4022.00,0.6995
4021.00,0.7001
4020.00,0.7007
4019.00,0.7013
4018.00,0.7017
4017.00,0.7021
4016.00,0.7024
4015.00,0.7027
4014.00,0.7030
4013.00,0.7033
4012.00,0.7036
4011.00,0.7037
4010.00,0.7038
4009.00,0.7039
4008.00,0.7039
4007.00,0.7039
4006.00,0.7039
4005.00,0.7039
4004.00,0.7038
4003.00,0.7036
4002.00,0.7034
4001.00,0.7032
4000.00,0.7030
   㕕侱�
♼⠨⚚