Created As ASCII File,样品 202 用户 Administrator 日期 星期四, 四月 22 2021
cm-1,A
12000.00,0.1998
11999.00,0.1998
11998.00,0.1997
11997.00,0.1996
11996.00,0.1997
11995.00,0.1998
11994.00,0.2000
11993.00,0.2000
11992.00,0.2000
11991.00,0.1999
11990.00,0.1999
11989.00,0.2000
11988.00,0.2002
11987.00,0.2004
11986.00,0.2005
11985.00,0.2005
11984.00,0.2004
11983.00,0.2003
11982.00,0.2003
11981.00,0.2004
11980.00,0.2005
11979.00,0.2004
11978.00,0.2003
11977.00,0.1999
11976.00,0.1996
11975.00,0.1993
11974.00,0.1992
11973.00,0.1991
11972.00,0.1992
11971.00,0.1992
11970.00,0.1992
11969.00,0.1992
11968.00,0.1993
11967.00,0.1994
11966.00,0.1997
11965.00,0.1999
11964.00,0.2001
11963.00,0.2001
11962.00,0.2000
11961.00,0.1999
11960.00,0.1999
11959.00,0.2000
11958.00,0.2002
11957.00,0.2002
11956.00,0.2001
11955.00,0.1999
11954.00,0.1997
11953.00,0.1994
11952.00,0.1992
11951.00,0.1990
11950.00,0.1990
11949.00,0.1990
11948.00,0.1992
11947.00,0.1995
11946.00,0.1999
11945.00,0.2004
11944.00,0.2007
11943.00,0.2008
11942.00,0.2006
11941.00,0.2004
11940.00,0.2002
11939.00,0.2002
11938.00,0.2004
11937.00,0.2007
11936.00,0.2010
11935.00,0.2010
11934.00,0.2007
11933.00,0.2002
11932.00,0.1997
11931.00,0.1994
11930.00,0.1993
11929.00,0.1993
11928.00,0.1995
11927.00,0.1995
11926.00,0.1994
11925.00,0.1993
11924.00,0.1990
11923.00,0.1988
11922.00,0.1986
11921.00,0.1983
11920.00,0.1981
11919.00,0.1980
11918.00,0.1981
11917.00,0.1985
11916.00,0.1990
11915.00,0.1996
11914.00,0.2000
11913.00,0.2000
11912.00,0.1998
11911.00,0.1995
11910.00,0.1993
11909.00,0.1994
11908.00,0.1998
11907.00,0.2003
11906.00,0.2006
11905.00,0.2007
11904.00,0.2005
11903.00,0.2001
11902.00,0.1998
11901.00,0.1997
11900.00,0.1998
11899.00,0.2000
11898.00,0.2003
11897.00,0.2004
11896.00,0.2004
11895.00,0.2001
11894.00,0.1998
11893.00,0.1995
11892.00,0.1992
11891.00,0.1992
11890.00,0.1993
11889.00,0.1995
11888.00,0.1997
11887.00,0.1998
11886.00,0.1998
11885.00,0.1996
11884.00,0.1994
11883.00,0.1993
11882.00,0.1994
11881.00,0.1998
11880.00,0.2003
11879.00,0.2007
11878.00,0.2009
11877.00,0.2008
11876.00,0.2005
11875.00,0.2003
11874.00,0.2002
11873.00,0.2003
11872.00,0.2005
11871.00,0.2007
11870.00,0.2007
11869.00,0.2005
11868.00,0.2002
11867.00,0.2000
11866.00,0.1999
11865.00,0.2000
11864.00,0.2002
11863.00,0.2004
11862.00,0.2005
11861.00,0.2004
11860.00,0.2001
11859.00,0.1997
11858.00,0.1995
11857.00,0.1994
11856.00,0.1996
11855.00,0.1999
11854.00,0.2002
11853.00,0.2005
11852.00,0.2006
11851.00,0.2007
11850.00,0.2006
11849.00,0.2004
11848.00,0.2002
11847.00,0.2002
11846.00,0.2003
11845.00,0.2006
11844.00,0.2010
11843.00,0.2012
11842.00,0.2012
11841.00,0.2008
11840.00,0.2001
11839.00,0.1994
11838.00,0.1989
11837.00,0.1987
11836.00,0.1988
11835.00,0.1991
11834.00,0.1995
11833.00,0.1998
11832.00,0.2000
11831.00,0.2001
11830.00,0.2000
11829.00,0.2000
11828.00,0.2000
11827.00,0.2001
11826.00,0.2002
11825.00,0.2003
11824.00,0.2005
11823.00,0.2005
11822.00,0.2006
11821.00,0.2006
11820.00,0.2005
11819.00,0.2005
11818.00,0.2004
11817.00,0.2003
11816.00,0.2004
11815.00,0.2005
11814.00,0.2006
11813.00,0.2008
11812.00,0.2010
11811.00,0.2011
11810.00,0.2012
11809.00,0.2011
11808.00,0.2008
11807.00,0.2005
11806.00,0.2002
11805.00,0.1998
11804.00,0.1995
11803.00,0.1992
11802.00,0.1990
11801.00,0.1989
11800.00,0.1990
11799.00,0.1991
11798.00,0.1993
11797.00,0.1994
11796.00,0.1996
11795.00,0.1996
11794.00,0.1996
11793.00,0.1997
11792.00,0.1998
11791.00,0.2000
11790.00,0.2002
11789.00,0.2002
11788.00,0.2001
11787.00,0.1998
11786.00,0.1994
11785.00,0.1989
11784.00,0.1987
11783.00,0.1986
11782.00,0.1988
11781.00,0.1990
11780.00,0.1993
11779.00,0.1995
11778.00,0.1995
11777.00,0.1996
11776.00,0.1997
11775.00,0.1999
11774.00,0.2003
11773.00,0.2007
11772.00,0.2011
11771.00,0.2013
11770.00,0.2014
11769.00,0.2012
11768.00,0.2010
11767.00,0.2007
11766.00,0.2006
11765.00,0.2005
11764.00,0.2007
11763.00,0.2010
11762.00,0.2013
11761.00,0.2016
11760.00,0.2016
11759.00,0.2015
11758.00,0.2012
11757.00,0.2008
11756.00,0.2005
11755.00,0.2003
11754.00,0.2003
11753.00,0.2004
11752.00,0.2004
11751.00,0.2003
11750.00,0.2000
11749.00,0.1997
11748.00,0.1994
11747.00,0.1991
11746.00,0.1990
11745.00,0.1991
11744.00,0.1993
11743.00,0.1996
11742.00,0.1999
11741.00,0.2000
11740.00,0.2000
11739.00,0.1998
11738.00,0.1995
11737.00,0.1993
11736.00,0.1992
11735.00,0.1994
11734.00,0.1997
11733.00,0.1999
11732.00,0.1999
11731.00,0.1998
11730.00,0.1995
11729.00,0.1993
11728.00,0.1993
11727.00,0.1995
11726.00,0.1996
11725.00,0.1998
11724.00,0.1998
11723.00,0.1996
11722.00,0.1995
11721.00,0.1996
11720.00,0.1997
11719.00,0.2000
11718.00,0.2002
11717.00,0.2004
11716.00,0.2004
11715.00,0.2005
11714.00,0.2005
11713.00,0.2006
11712.00,0.2007
11711.00,0.2007
11710.00,0.2005
11709.00,0.2003
11708.00,0.2001
11707.00,0.2000
11706.00,0.2001
11705.00,0.2004
11704.00,0.2005
11703.00,0.2005
11702.00,0.2003
11701.00,0.1998
11700.00,0.1993
11699.00,0.1990
11698.00,0.1991
11697.00,0.1995
11696.00,0.2000
11695.00,0.2004
11694.00,0.2004
11693.00,0.2002
11692.00,0.1999
11691.00,0.1997
11690.00,0.1998
11689.00,0.2002
11688.00,0.2007
11687.00,0.2011
11686.00,0.2012
11685.00,0.2010
11684.00,0.2007
11683.00,0.2004
11682.00,0.2003
11681.00,0.2004
11680.00,0.2005
11679.00,0.2006
11678.00,0.2006
11677.00,0.2006
11676.00,0.2008
11675.00,0.2011
11674.00,0.2013
11673.00,0.2014
11672.00,0.2012
11671.00,0.2009
11670.00,0.2005
11669.00,0.2003
11668.00,0.2003
11667.00,0.2005
11666.00,0.2006
11665.00,0.2005
11664.00,0.2002
11663.00,0.1999
11662.00,0.1998
11661.00,0.1999
11660.00,0.2002
11659.00,0.2005
11658.00,0.2006
11657.00,0.2005
11656.00,0.2003
11655.00,0.2000
11654.00,0.1999
11653.00,0.1999
11652.00,0.2000
11651.00,0.2000
11650.00,0.1998
11649.00,0.1996
11648.00,0.1995
11647.00,0.1994
11646.00,0.1994
11645.00,0.1995
11644.00,0.1996
11643.00,0.1997
11642.00,0.1999
11641.00,0.2000
11640.00,0.2002
11639.00,0.2002
11638.00,0.2002
11637.00,0.2001
11636.00,0.1999
11635.00,0.1998
11634.00,0.1998
11633.00,0.2001
11632.00,0.2003
11631.00,0.2006
11630.00,0.2007
11629.00,0.2006
11628.00,0.2004
11627.00,0.2001
11626.00,0.1999
11625.00,0.1998
11624.00,0.1998
11623.00,0.1999
11622.00,0.2000
11621.00,0.2002
11620.00,0.2003
11619.00,0.2004
11618.00,0.2005
11617.00,0.2006
11616.00,0.2008
11615.00,0.2010
11614.00,0.2012
11613.00,0.2014
11612.00,0.2016
11611.00,0.2017
11610.00,0.2018
11609.00,0.2018
11608.00,0.2017
11607.00,0.2016
11606.00,0.2014
11605.00,0.2013
11604.00,0.2013
11603.00,0.2014
11602.00,0.2016
11601.00,0.2017
11600.00,0.2017
11599.00,0.2016
11598.00,0.2015
11597.00,0.2014
11596.00,0.2013
11595.00,0.2012
11594.00,0.2012
11593.00,0.2011
11592.00,0.2011
11591.00,0.2010
11590.00,0.2010
11589.00,0.2011
11588.00,0.2011
11587.00,0.2011
11586.00,0.2010
11585.00,0.2009
11584.00,0.2007
11583.00,0.2006
11582.00,0.2005
11581.00,0.2004
11580.00,0.2003
11579.00,0.2001
11578.00,0.1999
11577.00,0.1997
11576.00,0.1997
11575.00,0.1998
11574.00,0.2000
11573.00,0.2003
11572.00,0.2003
11571.00,0.2003
11570.00,0.2001
11569.00,0.1999
11568.00,0.1998
11567.00,0.1999
11566.00,0.2001
11565.00,0.2004
11564.00,0.2005
11563.00,0.2005
11562.00,0.2004
11561.00,0.2002
11560.00,0.2001
11559.00,0.2001
11558.00,0.2003
11557.00,0.2005
11556.00,0.2007
11555.00,0.2008
11554.00,0.2008
11553.00,0.2008
11552.00,0.2007
11551.00,0.2007
11550.00,0.2007
11549.00,0.2009
11548.00,0.2010
11547.00,0.2012
11546.00,0.2014
11545.00,0.2014
11544.00,0.2014
11543.00,0.2013
11542.00,0.2013
11541.00,0.2012
11540.00,0.2012
11539.00,0.2013
11538.00,0.2014
11537.00,0.2014
11536.00,0.2014
11535.00,0.2013
11534.00,0.2012
11533.00,0.2011
11532.00,0.2012
11531.00,0.2014
11530.00,0.2016
11529.00,0.2017
11528.00,0.2016
11527.00,0.2015
11526.00,0.2013
11525.00,0.2012
11524.00,0.2011
11523.00,0.2012
11522.00,0.2014
11521.00,0.2015
11520.00,0.2016
11519.00,0.2014
11518.00,0.2010
11517.00,0.2005
11516.00,0.2001
11515.00,0.1998
11514.00,0.1997
11513.00,0.1997
11512.00,0.1999
11511.00,0.2001
11510.00,0.2002
11509.00,0.2002
11508.00,0.2001
11507.00,0.1999
11506.00,0.1999
11505.00,0.2000
11504.00,0.2001
11503.00,0.2003
11502.00,0.2005
11501.00,0.2006
11500.00,0.2006
11499.00,0.2006
11498.00,0.2007
11497.00,0.2009
11496.00,0.2010
11495.00,0.2011
11494.00,0.2012
11493.00,0.2011
11492.00,0.2011
11491.00,0.2010
11490.00,0.2011
11489.00,0.2012
11488.00,0.2013
11487.00,0.2013
11486.00,0.2012
11485.00,0.2009
11484.00,0.2006
11483.00,0.2004
11482.00,0.2003
11481.00,0.2005
11480.00,0.2008
11479.00,0.2012
11478.00,0.2014
11477.00,0.2016
11476.00,0.2016
11475.00,0.2015
11474.00,0.2014
11473.00,0.2013
11472.00,0.2013
11471.00,0.2013
11470.00,0.2014
11469.00,0.2015
11468.00,0.2014
11467.00,0.2013
11466.00,0.2010
11465.00,0.2008
11464.00,0.2006
11463.00,0.2006
11462.00,0.2007
11461.00,0.2008
11460.00,0.2009
11459.00,0.2008
11458.00,0.2006
11457.00,0.2004
11456.00,0.2003
11455.00,0.2004
11454.00,0.2005
11453.00,0.2007
11452.00,0.2008
11451.00,0.2007
11450.00,0.2006
11449.00,0.2004
11448.00,0.2002
11447.00,0.2002
11446.00,0.2001
11445.00,0.2002
11444.00,0.2002
11443.00,0.2002
11442.00,0.2003
11441.00,0.2004
11440.00,0.2004
11439.00,0.2005
11438.00,0.2005
11437.00,0.2005
11436.00,0.2006
11435.00,0.2008
11434.00,0.2011
11433.00,0.2014
11432.00,0.2017
11431.00,0.2016
11430.00,0.2014
11429.00,0.2010
11428.00,0.2006
11427.00,0.2004
11426.00,0.2003
11425.00,0.2004
11424.00,0.2003
11423.00,0.2002
11422.00,0.2001
11421.00,0.1999
11420.00,0.2000
11419.00,0.2002
11418.00,0.2004
11417.00,0.2006
11416.00,0.2006
11415.00,0.2005
11414.00,0.2004
11413.00,0.2004
11412.00,0.2006
11411.00,0.2009
11410.00,0.2012
11409.00,0.2014
11408.00,0.2015
11407.00,0.2014
11406.00,0.2014
11405.00,0.2015
11404.00,0.2017
11403.00,0.2019
11402.00,0.2020
11401.00,0.2019
11400.00,0.2016
11399.00,0.2012
11398.00,0.2009
11397.00,0.2007
11396.00,0.2006
11395.00,0.2005
11394.00,0.2005
11393.00,0.2004
11392.00,0.2004
11391.00,0.2004
11390.00,0.2004
11389.00,0.2006
11388.00,0.2008
11387.00,0.2011
11386.00,0.2014
11385.00,0.2015
11384.00,0.2015
11383.00,0.2015
11382.00,0.2013
11381.00,0.2011
11380.00,0.2010
11379.00,0.2008
11378.00,0.2007
11377.00,0.2006
11376.00,0.2005
11375.00,0.2004
11374.00,0.2004
11373.00,0.2003
11372.00,0.2003
11371.00,0.2004
11370.00,0.2005
11369.00,0.2006
11368.00,0.2009
11367.00,0.2011
11366.00,0.2014
11365.00,0.2016
11364.00,0.2017
11363.00,0.2018
11362.00,0.2017
11361.00,0.2016
11360.00,0.2014
11359.00,0.2013
11358.00,0.2013
11357.00,0.2013
11356.00,0.2014
11355.00,0.2014
11354.00,0.2014
11353.00,0.2012
11352.00,0.2011
11351.00,0.2011
11350.00,0.2012
11349.00,0.2014
11348.00,0.2015
11347.00,0.2016
11346.00,0.2016
11345.00,0.2015
11344.00,0.2015
11343.00,0.2015
11342.00,0.2016
11341.00,0.2017
11340.00,0.2017
11339.00,0.2016
11338.00,0.2015
11337.00,0.2014
11336.00,0.2014
11335.00,0.2015
11334.00,0.2017
11333.00,0.2018
11332.00,0.2019
11331.00,0.2017
11330.00,0.2015
11329.00,0.2013
11328.00,0.2012
11327.00,0.2011
11326.00,0.2012
11325.00,0.2013
11324.00,0.2013
11323.00,0.2013
11322.00,0.2013
11321.00,0.2011
11320.00,0.2010
11319.00,0.2008
11318.00,0.2008
11317.00,0.2008
11316.00,0.2008
11315.00,0.2008
11314.00,0.2008
11313.00,0.2008
11312.00,0.2008
11311.00,0.2008
11310.00,0.2009
11309.00,0.2009
11308.00,0.2010
11307.00,0.2011
11306.00,0.2012
11305.00,0.2013
11304.00,0.2015
11303.00,0.2016
11302.00,0.2015
11301.00,0.2014
11300.00,0.2011
11299.00,0.2009
11298.00,0.2009
11297.00,0.2010
11296.00,0.2011
11295.00,0.2013
11294.00,0.2013
11293.00,0.2013
11292.00,0.2012
11291.00,0.2011
11290.00,0.2011
11289.00,0.2011
11288.00,0.2013
11287.00,0.2015
11286.00,0.2016
11285.00,0.2016
11284.00,0.2014
11283.00,0.2012
11282.00,0.2010
11281.00,0.2010
11280.00,0.2010
11279.00,0.2013
11278.00,0.2016
11277.00,0.2018
11276.00,0.2019
11275.00,0.2018
11274.00,0.2015
11273.00,0.2012
11272.00,0.2011
11271.00,0.2011
11270.00,0.2011
11269.00,0.2012
11268.00,0.2012
11267.00,0.2011
11266.00,0.2010
11265.00,0.2009
11264.00,0.2009
11263.00,0.2010
11262.00,0.2012
11261.00,0.2015
11260.00,0.2017
11259.00,0.2019
11258.00,0.2020
11257.00,0.2020
11256.00,0.2018
11255.00,0.2016
11254.00,0.2014
11253.00,0.2012
11252.00,0.2011
11251.00,0.2010
11250.00,0.2010
11249.00,0.2009
11248.00,0.2009
11247.00,0.2009
11246.00,0.2008
11245.00,0.2008
11244.00,0.2009
11243.00,0.2011
11242.00,0.2013
11241.00,0.2016
11240.00,0.2017
11239.00,0.2017
11238.00,0.2015
11237.00,0.2013
11236.00,0.2012
11235.00,0.2013
11234.00,0.2015
11233.00,0.2018
11232.00,0.2020
11231.00,0.2020
11230.00,0.2018
11229.00,0.2017
11228.00,0.2016
11227.00,0.2017
11226.00,0.2019
11225.00,0.2020
11224.00,0.2020
11223.00,0.2017
11222.00,0.2014
11221.00,0.2011
11220.00,0.2009
11219.00,0.2008
11218.00,0.2007
11217.00,0.2007
11216.00,0.2007
11215.00,0.2008
11214.00,0.2010
11213.00,0.2012
11212.00,0.2014
11211.00,0.2014
11210.00,0.2012
11209.00,0.2011
11208.00,0.2010
11207.00,0.2011
11206.00,0.2013
11205.00,0.2016
11204.00,0.2017
11203.00,0.2017
11202.00,0.2015
11201.00,0.2013
11200.00,0.2013
11199.00,0.2014
11198.00,0.2016
11197.00,0.2018
11196.00,0.2018
11195.00,0.2018
11194.00,0.2017
11193.00,0.2017
11192.00,0.2019
11191.00,0.2020
11190.00,0.2021
11189.00,0.2021
11188.00,0.2021
11187.00,0.2020
11186.00,0.2021
11185.00,0.2022
11184.00,0.2023
11183.00,0.2024
11182.00,0.2023
11181.00,0.2021
11180.00,0.2018
11179.00,0.2015
11178.00,0.2013
11177.00,0.2013
11176.00,0.2015
11175.00,0.2017
11174.00,0.2019
11173.00,0.2020
11172.00,0.2020
11171.00,0.2018
11170.00,0.2017
11169.00,0.2017
11168.00,0.2018
11167.00,0.2019
11166.00,0.2020
11165.00,0.2020
11164.00,0.2018
11163.00,0.2016
11162.00,0.2015
11161.00,0.2016
11160.00,0.2018
11159.00,0.2020
11158.00,0.2022
11157.00,0.2022
11156.00,0.2022
11155.00,0.2022
11154.00,0.2021
11153.00,0.2022
11152.00,0.2022
11151.00,0.2021
11150.00,0.2020
11149.00,0.2017
11148.00,0.2015
11147.00,0.2014
11146.00,0.2015
11145.00,0.2016
11144.00,0.2018
11143.00,0.2018
11142.00,0.2016
11141.00,0.2015
11140.00,0.2014
11139.00,0.2015
11138.00,0.2017
11137.00,0.2020
11136.00,0.2021
11135.00,0.2020
11134.00,0.2019
11133.00,0.2018
11132.00,0.2018
11131.00,0.2020
11130.00,0.2021
11129.00,0.2021
11128.00,0.2021
11127.00,0.2019
11126.00,0.2019
11125.00,0.2019
11124.00,0.2020
11123.00,0.2020
11122.00,0.2018
11121.00,0.2016
11120.00,0.2015
11119.00,0.2016
11118.00,0.2018
11117.00,0.2021
11116.00,0.2024
11115.00,0.2024
11114.00,0.2022
11113.00,0.2020
11112.00,0.2018
11111.00,0.2018
11110.00,0.2019
11109.00,0.2020
11108.00,0.2019
11107.00,0.2019
11106.00,0.2018
11105.00,0.2019
11104.00,0.2020
11103.00,0.2022
11102.00,0.2023
11101.00,0.2024
11100.00,0.2024
11099.00,0.2024
11098.00,0.2024
11097.00,0.2024
11096.00,0.2024
11095.00,0.2023
11094.00,0.2022
11093.00,0.2021
11092.00,0.2019
11091.00,0.2018
11090.00,0.2018
11089.00,0.2019
11088.00,0.2020
11087.00,0.2020
11086.00,0.2021
11085.00,0.2021
11084.00,0.2021
11083.00,0.2020
11082.00,0.2019
11081.00,0.2019
11080.00,0.2019
11079.00,0.2020
11078.00,0.2023
11077.00,0.2025
11076.00,0.2028
11075.00,0.2028
11074.00,0.2027
11073.00,0.2026
11072.00,0.2024
11071.00,0.2024
11070.00,0.2025
11069.00,0.2027
11068.00,0.2028
11067.00,0.2028
11066.00,0.2026
11065.00,0.2024
11064.00,0.2022
11063.00,0.2021
11062.00,0.2021
11061.00,0.2021
11060.00,0.2021
11059.00,0.2020
11058.00,0.2018
11057.00,0.2017
11056.00,0.2016
11055.00,0.2015
11054.00,0.2015
11053.00,0.2014
11052.00,0.2014
11051.00,0.2014
11050.00,0.2013
11049.00,0.2013
11048.00,0.2014
11047.00,0.2016
11046.00,0.2019
11045.00,0.2021
11044.00,0.2022
11043.00,0.2021
11042.00,0.2019
11041.00,0.2017
11040.00,0.2017
11039.00,0.2018
11038.00,0.2020
11037.00,0.2023
11036.00,0.2025
11035.00,0.2026
11034.00,0.2025
11033.00,0.2026
11032.00,0.2026
11031.00,0.2027
11030.00,0.2027
11029.00,0.2027
11028.00,0.2026
11027.00,0.2025
11026.00,0.2024
11025.00,0.2024
11024.00,0.2023
11023.00,0.2021
11022.00,0.2019
11021.00,0.2017
11020.00,0.2015
11019.00,0.2015
11018.00,0.2016
11017.00,0.2016
11016.00,0.2016
11015.00,0.2015
11014.00,0.2014
11013.00,0.2013
11012.00,0.2012
11011.00,0.2013
11010.00,0.2014
11009.00,0.2015
11008.00,0.2018
11007.00,0.2020
11006.00,0.2023
11005.00,0.2025
11004.00,0.2026
11003.00,0.2027
11002.00,0.2029
11001.00,0.2030
11000.00,0.2030
10999.00,0.2029
10998.00,0.2028
10997.00,0.2025
10996.00,0.2024
10995.00,0.2023
10994.00,0.2024
10993.00,0.2024
10992.00,0.2023
10991.00,0.2022
10990.00,0.2021
10989.00,0.2021
10988.00,0.2022
10987.00,0.2024
10986.00,0.2024
10985.00,0.2021
10984.00,0.2017
10983.00,0.2013
10982.00,0.2011
10981.00,0.2013
10980.00,0.2016
10979.00,0.2019
10978.00,0.2021
10977.00,0.2022
10976.00,0.2023
10975.00,0.2025
10974.00,0.2028
10973.00,0.2031
10972.00,0.2033
10971.00,0.2034
10970.00,0.2032
10969.00,0.2030
10968.00,0.2027
10967.00,0.2025
10966.00,0.2022
10965.00,0.2020
10964.00,0.2019
10963.00,0.2019
10962.00,0.2020
10961.00,0.2021
10960.00,0.2021
10959.00,0.2021
10958.00,0.2020
10957.00,0.2019
10956.00,0.2019
10955.00,0.2021
10954.00,0.2023
10953.00,0.2026
10952.00,0.2027
10951.00,0.2028
10950.00,0.2028
10949.00,0.2027
10948.00,0.2025
10947.00,0.2023
10946.00,0.2022
10945.00,0.2023
10944.00,0.2024
10943.00,0.2025
10942.00,0.2025
10941.00,0.2024
10940.00,0.2021
10939.00,0.2019
10938.00,0.2019
10937.00,0.2021
10936.00,0.2025
10935.00,0.2028
10934.00,0.2031
10933.00,0.2032
10932.00,0.2032
10931.00,0.2031
10930.00,0.2031
10929.00,0.2030
10928.00,0.2029
10927.00,0.2027
10926.00,0.2026
10925.00,0.2024
10924.00,0.2024
10923.00,0.2024
10922.00,0.2023
10921.00,0.2020
10920.00,0.2017
10919.00,0.2014
10918.00,0.2013
10917.00,0.2014
10916.00,0.2016
10915.00,0.2017
10914.00,0.2018
10913.00,0.2018
10912.00,0.2019
10911.00,0.2020
10910.00,0.2022
10909.00,0.2022
10908.00,0.2021
10907.00,0.2019
10906.00,0.2018
10905.00,0.2018
10904.00,0.2021
10903.00,0.2024
10902.00,0.2026
10901.00,0.2025
10900.00,0.2023
10899.00,0.2019
10898.00,0.2016
10897.00,0.2014
10896.00,0.2014
10895.00,0.2016
10894.00,0.2018
10893.00,0.2020
10892.00,0.2021
10891.00,0.2020
10890.00,0.2018
10889.00,0.2017
10888.00,0.2017
10887.00,0.2019
10886.00,0.2022
10885.00,0.2025
10884.00,0.2026
10883.00,0.2025
10882.00,0.2022
10881.00,0.2018
10880.00,0.2016
10879.00,0.2015
10878.00,0.2016
10877.00,0.2017
10876.00,0.2018
10875.00,0.2019
10874.00,0.2020
10873.00,0.2021
10872.00,0.2023
10871.00,0.2024
10870.00,0.2025
10869.00,0.2025
10868.00,0.2024
10867.00,0.2023
10866.00,0.2022
10865.00,0.2021
10864.00,0.2020
10863.00,0.2019
10862.00,0.2019
10861.00,0.2020
10860.00,0.2021
10859.00,0.2021
10858.00,0.2022
10857.00,0.2022
10856.00,0.2022
10855.00,0.2022
10854.00,0.2022
10853.00,0.2022
10852.00,0.2021
10851.00,0.2020
10850.00,0.2020
10849.00,0.2020
10848.00,0.2021
10847.00,0.2022
10846.00,0.2021
10845.00,0.2019
10844.00,0.2018
10843.00,0.2018
10842.00,0.2021
10841.00,0.2025
10840.00,0.2030
10839.00,0.2032
10838.00,0.2032
10837.00,0.2030
10836.00,0.2027
10835.00,0.2025
10834.00,0.2025
10833.00,0.2027
10832.00,0.2029
10831.00,0.2030
10830.00,0.2028
10829.00,0.2025
10828.00,0.2020
10827.00,0.2018
10826.00,0.2018
10825.00,0.2020
10824.00,0.2023
10823.00,0.2023
10822.00,0.2021
10821.00,0.2017
10820.00,0.2015
10819.00,0.2014
10818.00,0.2015
10817.00,0.2017
10816.00,0.2018
10815.00,0.2017
10814.00,0.2014
10813.00,0.2012
10812.00,0.2012
10811.00,0.2014
10810.00,0.2017
10809.00,0.2019
10808.00,0.2021
10807.00,0.2021
10806.00,0.2022
10805.00,0.2022
10804.00,0.2023
10803.00,0.2024
10802.00,0.2024
10801.00,0.2024
10800.00,0.2024
10799.00,0.2024
10798.00,0.2024
10797.00,0.2025
10796.00,0.2025
10795.00,0.2024
10794.00,0.2023
10793.00,0.2021
10792.00,0.2019
10791.00,0.2018
10790.00,0.2019
10789.00,0.2019
10788.00,0.2020
10787.00,0.2020
10786.00,0.2019
10785.00,0.2018
10784.00,0.2016
10783.00,0.2016
10782.00,0.2017
10781.00,0.2019
10780.00,0.2020
10779.00,0.2020
10778.00,0.2018
10777.00,0.2016
10776.00,0.2015
10775.00,0.2014
10774.00,0.2015
10773.00,0.2017
10772.00,0.2018
10771.00,0.2019
10770.00,0.2019
10769.00,0.2017
10768.00,0.2016
10767.00,0.2015
10766.00,0.2015
10765.00,0.2015
10764.00,0.2016
10763.00,0.2017
10762.00,0.2018
10761.00,0.2018
10760.00,0.2018
10759.00,0.2016
10758.00,0.2014
10757.00,0.2013
10756.00,0.2012
10755.00,0.2013
10754.00,0.2015
10753.00,0.2016
10752.00,0.2017
10751.00,0.2016
10750.00,0.2015
10749.00,0.2015
10748.00,0.2016
10747.00,0.2020
10746.00,0.2023
10745.00,0.2026
10744.00,0.2027
10743.00,0.2026
10742.00,0.2025
10741.00,0.2024
10740.00,0.2023
10739.00,0.2022
10738.00,0.2021
10737.00,0.2019
10736.00,0.2018
10735.00,0.2018
10734.00,0.2019
10733.00,0.2021
10732.00,0.2023
10731.00,0.2024
10730.00,0.2023
10729.00,0.2022
10728.00,0.2021
10727.00,0.2022
10726.00,0.2022
10725.00,0.2021
10724.00,0.2018
10723.00,0.2015
10722.00,0.2011
10721.00,0.2011
10720.00,0.2013
10719.00,0.2016
10718.00,0.2019
10717.00,0.2020
10716.00,0.2019
10715.00,0.2017
10714.00,0.2017
10713.00,0.2019
10712.00,0.2023
10711.00,0.2026
10710.00,0.2027
10709.00,0.2026
10708.00,0.2024
10707.00,0.2022
10706.00,0.2022
10705.00,0.2023
10704.00,0.2023
10703.00,0.2023
10702.00,0.2022
10701.00,0.2021
10700.00,0.2020
10699.00,0.2020
10698.00,0.2020
10697.00,0.2020
10696.00,0.2018
10695.00,0.2017
10694.00,0.2016
10693.00,0.2016
10692.00,0.2017
10691.00,0.2018
10690.00,0.2018
10689.00,0.2018
10688.00,0.2018
10687.00,0.2019
10686.00,0.2021
10685.00,0.2023
10684.00,0.2024
10683.00,0.2023
10682.00,0.2021
10681.00,0.2019
10680.00,0.2017
10679.00,0.2017
10678.00,0.2017
10677.00,0.2018
10676.00,0.2016
10675.00,0.2014
10674.00,0.2011
10673.00,0.2009
10672.00,0.2009
10671.00,0.2011
10670.00,0.2014
10669.00,0.2017
10668.00,0.2018
10667.00,0.2019
10666.00,0.2018
10665.00,0.2017
10664.00,0.2017
10663.00,0.2017
10662.00,0.2018
10661.00,0.2020
10660.00,0.2021
10659.00,0.2022
10658.00,0.2022
10657.00,0.2021
10656.00,0.2019
10655.00,0.2019
10654.00,0.2020
10653.00,0.2022
10652.00,0.2023
10651.00,0.2024
10650.00,0.2022
10649.00,0.2019
10648.00,0.2017
10647.00,0.2016
10646.00,0.2017
10645.00,0.2019
10644.00,0.2021
10643.00,0.2022
10642.00,0.2021
10641.00,0.2019
10640.00,0.2018
10639.00,0.2018
10638.00,0.2018
10637.00,0.2020
10636.00,0.2021
10635.00,0.2022
10634.00,0.2021
10633.00,0.2021
10632.00,0.2019
10631.00,0.2019
10630.00,0.2019
10629.00,0.2020
10628.00,0.2022
10627.00,0.2024
10626.00,0.2025
10625.00,0.2024
10624.00,0.2023
10623.00,0.2021
10622.00,0.2020
10621.00,0.2020
10620.00,0.2021
10619.00,0.2021
10618.00,0.2021
10617.00,0.2021
10616.00,0.2021
10615.00,0.2021
10614.00,0.2022
10613.00,0.2023
10612.00,0.2024
10611.00,0.2025
10610.00,0.2026
10609.00,0.2027
10608.00,0.2028
10607.00,0.2028
10606.00,0.2028
10605.00,0.2027
10604.00,0.2027
10603.00,0.2028
10602.00,0.2030
10601.00,0.2031
10600.00,0.2032
10599.00,0.2032
10598.00,0.2032
10597.00,0.2031
10596.00,0.2031
10595.00,0.2031
10594.00,0.2031
10593.00,0.2031
10592.00,0.2031
10591.00,0.2031
10590.00,0.2031
10589.00,0.2031
10588.00,0.2031
10587.00,0.2031
10586.00,0.2031
10585.00,0.2030
10584.00,0.2029
10583.00,0.2029
10582.00,0.2029
10581.00,0.2030
10580.00,0.2029
10579.00,0.2028
10578.00,0.2026
10577.00,0.2024
10576.00,0.2023
10575.00,0.2023
10574.00,0.2024
10573.00,0.2025
10572.00,0.2026
10571.00,0.2026
10570.00,0.2026
10569.00,0.2027
10568.00,0.2027
10567.00,0.2027
10566.00,0.2028
10565.00,0.2028
10564.00,0.2029
10563.00,0.2031
10562.00,0.2033
10561.00,0.2033
10560.00,0.2033
10559.00,0.2031
10558.00,0.2031
10557.00,0.2031
10556.00,0.2033
10555.00,0.2035
10554.00,0.2036
10553.00,0.2037
10552.00,0.2036
10551.00,0.2036
10550.00,0.2035
10549.00,0.2036
10548.00,0.2038
10547.00,0.2039
10546.00,0.2039
10545.00,0.2039
10544.00,0.2038
10543.00,0.2037
10542.00,0.2035
10541.00,0.2035
10540.00,0.2035
10539.00,0.2036
10538.00,0.2037
10537.00,0.2037
10536.00,0.2037
10535.00,0.2037
10534.00,0.2037
10533.00,0.2037
10532.00,0.2037
10531.00,0.2037
10530.00,0.2036
10529.00,0.2035
10528.00,0.2034
10527.00,0.2034
10526.00,0.2035
10525.00,0.2037
10524.00,0.2039
10523.00,0.2040
10522.00,0.2040
10521.00,0.2040
10520.00,0.2040
10519.00,0.2041
10518.00,0.2042
10517.00,0.2043
10516.00,0.2044
10515.00,0.2043
10514.00,0.2041
10513.00,0.2040
10512.00,0.2040
10511.00,0.2041
10510.00,0.2044
10509.00,0.2047
10508.00,0.2050
10507.00,0.2051
10506.00,0.2050
10505.00,0.2049
10504.00,0.2047
10503.00,0.2045
10502.00,0.2044
10501.00,0.2043
10500.00,0.2043
10499.00,0.2042
10498.00,0.2040
10497.00,0.2039
10496.00,0.2038
10495.00,0.2038
10494.00,0.2039
10493.00,0.2040
10492.00,0.2042
10491.00,0.2043
10490.00,0.2045
10489.00,0.2046
10488.00,0.2048
10487.00,0.2050
10486.00,0.2051
10485.00,0.2053
10484.00,0.2054
10483.00,0.2054
10482.00,0.2054
10481.00,0.2055
10480.00,0.2055
10479.00,0.2056
10478.00,0.2058
10477.00,0.2058
10476.00,0.2058
10475.00,0.2056
10474.00,0.2054
10473.00,0.2052
10472.00,0.2052
10471.00,0.2053
10470.00,0.2055
10469.00,0.2056
10468.00,0.2057
10467.00,0.2056
10466.00,0.2055
10465.00,0.2054
10464.00,0.2054
10463.00,0.2056
10462.00,0.2057
10461.00,0.2058
10460.00,0.2056
10459.00,0.2054
10458.00,0.2051
10457.00,0.2050
10456.00,0.2049
10455.00,0.2049
10454.00,0.2049
10453.00,0.2048
10452.00,0.2047
10451.00,0.2047
10450.00,0.2048
10449.00,0.2050
10448.00,0.2053
10447.00,0.2056
10446.00,0.2058
10445.00,0.2058
10444.00,0.2059
10443.00,0.2060
10442.00,0.2062
10441.00,0.2064
10440.00,0.2065
10439.00,0.2066
10438.00,0.2066
10437.00,0.2066
10436.00,0.2067
10435.00,0.2068
10434.00,0.2069
10433.00,0.2068
10432.00,0.2066
10431.00,0.2065
10430.00,0.2065
10429.00,0.2066
10428.00,0.2068
10427.00,0.2071
10426.00,0.2072
10425.00,0.2072
10424.00,0.2071
10423.00,0.2070
10422.00,0.2070
10421.00,0.2069
10420.00,0.2068
10419.00,0.2068
10418.00,0.2067
10417.00,0.2066
10416.00,0.2065
10415.00,0.2065
10414.00,0.2065
10413.00,0.2066
10412.00,0.2067
10411.00,0.2068
10410.00,0.2070
10409.00,0.2071
10408.00,0.2073
10407.00,0.2074
10406.00,0.2074
10405.00,0.2075
10404.00,0.2076
10403.00,0.2076
10402.00,0.2075
10401.00,0.2073
10400.00,0.2070
10399.00,0.2069
10398.00,0.2068
10397.00,0.2069
10396.00,0.2071
10395.00,0.2071
10394.00,0.2070
10393.00,0.2068
10392.00,0.2067
10391.00,0.2068
10390.00,0.2070
10389.00,0.2073
10388.00,0.2075
10387.00,0.2076
10386.00,0.2075
10385.00,0.2074
10384.00,0.2073
10383.00,0.2073
10382.00,0.2073
10381.00,0.2073
10380.00,0.2073
10379.00,0.2073
10378.00,0.2073
10377.00,0.2073
10376.00,0.2074
10375.00,0.2076
10374.00,0.2077
10373.00,0.2078
10372.00,0.2079
10371.00,0.2080
10370.00,0.2081
10369.00,0.2081
10368.00,0.2081
10367.00,0.2080
10366.00,0.2080
10365.00,0.2080
10364.00,0.2080
10363.00,0.2080
10362.00,0.2079
10361.00,0.2078
10360.00,0.2077
10359.00,0.2077
10358.00,0.2078
10357.00,0.2079
10356.00,0.2078
10355.00,0.2077
10354.00,0.2076
10353.00,0.2077
10352.00,0.2077
10351.00,0.2079
10350.00,0.2079
10349.00,0.2080
10348.00,0.2080
10347.00,0.2081
10346.00,0.2083
10345.00,0.2084
10344.00,0.2085
10343.00,0.2085
10342.00,0.2085
10341.00,0.2085
10340.00,0.2086
10339.00,0.2087
10338.00,0.2088
10337.00,0.2088
10336.00,0.2088
10335.00,0.2089
10334.00,0.2091
10333.00,0.2092
10332.00,0.2093
10331.00,0.2093
10330.00,0.2091
10329.00,0.2089
10328.00,0.2087
10327.00,0.2086
10326.00,0.2087
10325.00,0.2087
10324.00,0.2088
10323.00,0.2088
10322.00,0.2087
10321.00,0.2087
10320.00,0.2087
10319.00,0.2089
10318.00,0.2090
10317.00,0.2092
10316.00,0.2093
10315.00,0.2094
10314.00,0.2093
10313.00,0.2092
10312.00,0.2091
10311.00,0.2091
10310.00,0.2092
10309.00,0.2093
10308.00,0.2094
10307.00,0.2095
10306.00,0.2095
10305.00,0.2096
10304.00,0.2098
10303.00,0.2100
10302.00,0.2101
10301.00,0.2101
10300.00,0.2100
10299.00,0.2098
10298.00,0.2097
10297.00,0.2097
10296.00,0.2097
10295.00,0.2098
10294.00,0.2098
10293.00,0.2098
10292.00,0.2097
10291.00,0.2097
10290.00,0.2096
10289.00,0.2096
10288.00,0.2096
10287.00,0.2096
10286.00,0.2097
10285.00,0.2098
10284.00,0.2099
10283.00,0.2099
10282.00,0.2099
10281.00,0.2099
10280.00,0.2099
10279.00,0.2100
10278.00,0.2101
10277.00,0.2102
10276.00,0.2103
10275.00,0.2103
10274.00,0.2102
10273.00,0.2101
10272.00,0.2100
10271.00,0.2100
10270.00,0.2101
10269.00,0.2101
10268.00,0.2102
10267.00,0.2102
10266.00,0.2103
10265.00,0.2105
10264.00,0.2107
10263.00,0.2108
10262.00,0.2109
10261.00,0.2109
10260.00,0.2108
10259.00,0.2108
10258.00,0.2108
10257.00,0.2108
10256.00,0.2110
10255.00,0.2112
10254.00,0.2114
10253.00,0.2114
10252.00,0.2114
10251.00,0.2114
10250.00,0.2114
10249.00,0.2114
10248.00,0.2116
10247.00,0.2117
10246.00,0.2117
10245.00,0.2115
10244.00,0.2114
10243.00,0.2112
10242.00,0.2112
10241.00,0.2112
10240.00,0.2114
10239.00,0.2115
10238.00,0.2116
10237.00,0.2117
10236.00,0.2117
10235.00,0.2118
10234.00,0.2119
10233.00,0.2120
10232.00,0.2121
10231.00,0.2122
10230.00,0.2122
10229.00,0.2122
10228.00,0.2121
10227.00,0.2120
10226.00,0.2119
10225.00,0.2119
10224.00,0.2119
10223.00,0.2119
10222.00,0.2118
10221.00,0.2116
10220.00,0.2115
10219.00,0.2115
10218.00,0.2118
10217.00,0.2120
10216.00,0.2122
10215.00,0.2122
10214.00,0.2120
10213.00,0.2119
10212.00,0.2120
10211.00,0.2123
10210.00,0.2125
10209.00,0.2125
10208.00,0.2123
10207.00,0.2120
10206.00,0.2117
10205.00,0.2115
10204.00,0.2116
10203.00,0.2118
10202.00,0.2119
10201.00,0.2120
10200.00,0.2120
10199.00,0.2121
10198.00,0.2122
10197.00,0.2124
10196.00,0.2126
10195.00,0.2128
10194.00,0.2129
10193.00,0.2130
10192.00,0.2130
10191.00,0.2129
10190.00,0.2128
10189.00,0.2128
10188.00,0.2127
10187.00,0.2127
10186.00,0.2127
10185.00,0.2126
10184.00,0.2125
10183.00,0.2125
10182.00,0.2124
10181.00,0.2125
10180.00,0.2127
10179.00,0.2128
10178.00,0.2128
10177.00,0.2127
10176.00,0.2126
10175.00,0.2126
10174.00,0.2126
10173.00,0.2128
10172.00,0.2129
10171.00,0.2129
10170.00,0.2129
10169.00,0.2129
10168.00,0.2129
10167.00,0.2130
10166.00,0.2131
10165.00,0.2131
10164.00,0.2132
10163.00,0.2133
10162.00,0.2135
10161.00,0.2137
10160.00,0.2139
10159.00,0.2139
10158.00,0.2138
10157.00,0.2137
10156.00,0.2137
10155.00,0.2139
10154.00,0.2141
10153.00,0.2141
10152.00,0.2139
10151.00,0.2137
10150.00,0.2135
10149.00,0.2135
10148.00,0.2136
10147.00,0.2138
10146.00,0.2138
10145.00,0.2138
10144.00,0.2137
10143.00,0.2136
10142.00,0.2135
10141.00,0.2136
10140.00,0.2137
10139.00,0.2138
10138.00,0.2139
10137.00,0.2139
10136.00,0.2139
10135.00,0.2138
10134.00,0.2138
10133.00,0.2139
10132.00,0.2140
10131.00,0.2141
10130.00,0.2141
10129.00,0.2141
10128.00,0.2140
10127.00,0.2139
10126.00,0.2140
10125.00,0.2141
10124.00,0.2141
10123.00,0.2141
10122.00,0.2140
10121.00,0.2138
10120.00,0.2137
10119.00,0.2137
10118.00,0.2139
10117.00,0.2141
10116.00,0.2142
10115.00,0.2142
10114.00,0.2141
10113.00,0.2139
10112.00,0.2139
10111.00,0.2140
10110.00,0.2143
10109.00,0.2145
10108.00,0.2147
10107.00,0.2146
10106.00,0.2144
10105.00,0.2142
10104.00,0.2141
10103.00,0.2141
10102.00,0.2143
10101.00,0.2144
10100.00,0.2145
10099.00,0.2145
10098.00,0.2144
10097.00,0.2143
10096.00,0.2142
10095.00,0.2143
10094.00,0.2144
10093.00,0.2144
10092.00,0.2145
10091.00,0.2145
10090.00,0.2144
10089.00,0.2143
10088.00,0.2143
10087.00,0.2143
10086.00,0.2144
10085.00,0.2145
10084.00,0.2145
10083.00,0.2144
10082.00,0.2142
10081.00,0.2140
10080.00,0.2139
10079.00,0.2138
10078.00,0.2138
10077.00,0.2136
10076.00,0.2134
10075.00,0.2133
10074.00,0.2132
10073.00,0.2133
10072.00,0.2135
10071.00,0.2137
10070.00,0.2138
10069.00,0.2140
10068.00,0.2140
10067.00,0.2141
10066.00,0.2142
10065.00,0.2143
10064.00,0.2143
10063.00,0.2143
10062.00,0.2144
10061.00,0.2144
10060.00,0.2144
10059.00,0.2144
10058.00,0.2144
10057.00,0.2144
10056.00,0.2144
10055.00,0.2145
10054.00,0.2145
10053.00,0.2145
10052.00,0.2144
10051.00,0.2143
10050.00,0.2142
10049.00,0.2142
10048.00,0.2141
10047.00,0.2141
10046.00,0.2141
10045.00,0.2141
10044.00,0.2141
10043.00,0.2141
10042.00,0.2140
10041.00,0.2140
10040.00,0.2141
10039.00,0.2142
10038.00,0.2143
10037.00,0.2144
10036.00,0.2144
10035.00,0.2144
10034.00,0.2145
10033.00,0.2147
10032.00,0.2149
10031.00,0.2150
10030.00,0.2150
10029.00,0.2150
10028.00,0.2149
10027.00,0.2149
10026.00,0.2149
10025.00,0.2148
10024.00,0.2147
10023.00,0.2146
10022.00,0.2144
10021.00,0.2142
10020.00,0.2141
10019.00,0.2141
10018.00,0.2142
10017.00,0.2144
10016.00,0.2145
10015.00,0.2145
10014.00,0.2145
10013.00,0.2144
10012.00,0.2144
10011.00,0.2144
10010.00,0.2145
10009.00,0.2145
10008.00,0.2144
10007.00,0.2142
10006.00,0.2140
10005.00,0.2138
10004.00,0.2137
10003.00,0.2136
10002.00,0.2135
10001.00,0.2135
10000.00,0.2135
9999.00,0.2135
9998.00,0.2137
9997.00,0.2138
9996.00,0.2140
9995.00,0.2141
9994.00,0.2142
9993.00,0.2142
9992.00,0.2144
9991.00,0.2146
9990.00,0.2147
9989.00,0.2148
9988.00,0.2148
9987.00,0.2146
9986.00,0.2144
9985.00,0.2143
9984.00,0.2143
9983.00,0.2144
9982.00,0.2144
9981.00,0.2144
9980.00,0.2143
9979.00,0.2141
9978.00,0.2140
9977.00,0.2140
9976.00,0.2141
9975.00,0.2142
9974.00,0.2142
9973.00,0.2142
9972.00,0.2143
9971.00,0.2144
9970.00,0.2144
9969.00,0.2145
9968.00,0.2146
9967.00,0.2145
9966.00,0.2145
9965.00,0.2146
9964.00,0.2147
9963.00,0.2149
9962.00,0.2150
9961.00,0.2150
9960.00,0.2149
9959.00,0.2148
9958.00,0.2147
9957.00,0.2147
9956.00,0.2147
9955.00,0.2148
9954.00,0.2148
9953.00,0.2148
9952.00,0.2148
9951.00,0.2148
9950.00,0.2147
9949.00,0.2147
9948.00,0.2147
9947.00,0.2146
9946.00,0.2145
9945.00,0.2144
9944.00,0.2143
9943.00,0.2141
9942.00,0.2138
9941.00,0.2136
9940.00,0.2135
9939.00,0.2135
9938.00,0.2136
9937.00,0.2137
9936.00,0.2138
9935.00,0.2139
9934.00,0.2139
9933.00,0.2139
9932.00,0.2139
9931.00,0.2139
9930.00,0.2139
9929.00,0.2140
9928.00,0.2141
9927.00,0.2142
9926.00,0.2142
9925.00,0.2142
9924.00,0.2141
9923.00,0.2141
9922.00,0.2142
9921.00,0.2143
9920.00,0.2145
9919.00,0.2145
9918.00,0.2145
9917.00,0.2144
9916.00,0.2142
9915.00,0.2140
9914.00,0.2138
9913.00,0.2136
9912.00,0.2136
9911.00,0.2136
9910.00,0.2137
9909.00,0.2138
9908.00,0.2138
9907.00,0.2137
9906.00,0.2137
9905.00,0.2137
9904.00,0.2138
9903.00,0.2139
9902.00,0.2140
9901.00,0.2140
9900.00,0.2139
9899.00,0.2138
9898.00,0.2137
9897.00,0.2138
9896.00,0.2139
9895.00,0.2141
9894.00,0.2142
9893.00,0.2144
9892.00,0.2145
9891.00,0.2145
9890.00,0.2144
9889.00,0.2144
9888.00,0.2143
9887.00,0.2143
9886.00,0.2142
9885.00,0.2142
9884.00,0.2141
9883.00,0.2140
9882.00,0.2140
9881.00,0.2140
9880.00,0.2140
9879.00,0.2140
9878.00,0.2139
9877.00,0.2138
9876.00,0.2136
9875.00,0.2135
9874.00,0.2134
9873.00,0.2134
9872.00,0.2134
9871.00,0.2134
9870.00,0.2135
9869.00,0.2136
9868.00,0.2136
9867.00,0.2137
9866.00,0.2137
9865.00,0.2138
9864.00,0.2139
9863.00,0.2141
9862.00,0.2142
9861.00,0.2143
9860.00,0.2142
9859.00,0.2140
9858.00,0.2138
9857.00,0.2136
9856.00,0.2135
9855.00,0.2135
9854.00,0.2137
9853.00,0.2137
9852.00,0.2137
9851.00,0.2135
9850.00,0.2134
9849.00,0.2134
9848.00,0.2135
9847.00,0.2139
9846.00,0.2142
9845.00,0.2143
9844.00,0.2143
9843.00,0.2142
9842.00,0.2141
9841.00,0.2141
9840.00,0.2142
9839.00,0.2143
9838.00,0.2143
9837.00,0.2142
9836.00,0.2140
9835.00,0.2139
9834.00,0.2138
9833.00,0.2138
9832.00,0.2139
9831.00,0.2139
9830.00,0.2139
9829.00,0.2138
9828.00,0.2138
9827.00,0.2138
9826.00,0.2138
9825.00,0.2137
9824.00,0.2136
9823.00,0.2135
9822.00,0.2134
9821.00,0.2135
9820.00,0.2137
9819.00,0.2138
9818.00,0.2139
9817.00,0.2138
9816.00,0.2138
9815.00,0.2137
9814.00,0.2138
9813.00,0.2139
9812.00,0.2140
9811.00,0.2139
9810.00,0.2137
9809.00,0.2134
9808.00,0.2132
9807.00,0.2131
9806.00,0.2132
9805.00,0.2133
9804.00,0.2135
9803.00,0.2135
9802.00,0.2134
9801.00,0.2133
9800.00,0.2131
9799.00,0.2131
9798.00,0.2131
9797.00,0.2133
9796.00,0.2134
9795.00,0.2135
9794.00,0.2135
9793.00,0.2135
9792.00,0.2135
9791.00,0.2136
9790.00,0.2136
9789.00,0.2136
9788.00,0.2136
9787.00,0.2136
9786.00,0.2136
9785.00,0.2135
9784.00,0.2134
9783.00,0.2132
9782.00,0.2131
9781.00,0.2129
9780.00,0.2129
9779.00,0.2130
9778.00,0.2132
9777.00,0.2133
9776.00,0.2133
9775.00,0.2133
9774.00,0.2133
9773.00,0.2133
9772.00,0.2134
9771.00,0.2135
9770.00,0.2135
9769.00,0.2136
9768.00,0.2136
9767.00,0.2136
9766.00,0.2136
9765.00,0.2136
9764.00,0.2136
9763.00,0.2136
9762.00,0.2136
9761.00,0.2136
9760.00,0.2135
9759.00,0.2133
9758.00,0.2132
9757.00,0.2131
9756.00,0.2131
9755.00,0.2131
9754.00,0.2131
9753.00,0.2129
9752.00,0.2128
9751.00,0.2127
9750.00,0.2127
9749.00,0.2129
9748.00,0.2131
9747.00,0.2132
9746.00,0.2132
9745.00,0.2131
9744.00,0.2131
9743.00,0.2131
9742.00,0.2132
9741.00,0.2132
9740.00,0.2132
9739.00,0.2132
9738.00,0.2132
9737.00,0.2130
9736.00,0.2129
9735.00,0.2127
9734.00,0.2125
9733.00,0.2125
9732.00,0.2125
9731.00,0.2126
9730.00,0.2127
9729.00,0.2127
9728.00,0.2127
9727.00,0.2126
9726.00,0.2127
9725.00,0.2128
9724.00,0.2129
9723.00,0.2130
9722.00,0.2129
9721.00,0.2128
9720.00,0.2126
9719.00,0.2125
9718.00,0.2125
9717.00,0.2124
9716.00,0.2124
9715.00,0.2124
9714.00,0.2123
9713.00,0.2123
9712.00,0.2123
9711.00,0.2123
9710.00,0.2123
9709.00,0.2123
9708.00,0.2122
9707.00,0.2122
9706.00,0.2122
9705.00,0.2121
9704.00,0.2121
9703.00,0.2120
9702.00,0.2120
9701.00,0.2122
9700.00,0.2123
9699.00,0.2124
9698.00,0.2124
9697.00,0.2124
9696.00,0.2123
9695.00,0.2123
9694.00,0.2125
9693.00,0.2126
9692.00,0.2126
9691.00,0.2126
9690.00,0.2124
9689.00,0.2124
9688.00,0.2125
9687.00,0.2127
9686.00,0.2129
9685.00,0.2128
9684.00,0.2126
9683.00,0.2124
9682.00,0.2124
9681.00,0.2124
9680.00,0.2124
9679.00,0.2123
9678.00,0.2121
9677.00,0.2119
9676.00,0.2118
9675.00,0.2118
9674.00,0.2120
9673.00,0.2121
9672.00,0.2120
9671.00,0.2119
9670.00,0.2119
9669.00,0.2120
9668.00,0.2121
9667.00,0.2123
9666.00,0.2123
9665.00,0.2123
9664.00,0.2123
9663.00,0.2123
9662.00,0.2123
9661.00,0.2123
9660.00,0.2123
9659.00,0.2123
9658.00,0.2122
9657.00,0.2121
9656.00,0.2120
9655.00,0.2120
9654.00,0.2120
9653.00,0.2120
9652.00,0.2121
9651.00,0.2121
9650.00,0.2120
9649.00,0.2120
9648.00,0.2119
9647.00,0.2119
9646.00,0.2120
9645.00,0.2120
9644.00,0.2119
9643.00,0.2118
9642.00,0.2117
9641.00,0.2117
9640.00,0.2118
9639.00,0.2119
9638.00,0.2119
9637.00,0.2118
9636.00,0.2116
9635.00,0.2114
9634.00,0.2112
9633.00,0.2112
9632.00,0.2112
9631.00,0.2112
9630.00,0.2113
9629.00,0.2113
9628.00,0.2114
9627.00,0.2115
9626.00,0.2115
9625.00,0.2116
9624.00,0.2116
9623.00,0.2115
9622.00,0.2115
9621.00,0.2114
9620.00,0.2115
9619.00,0.2115
9618.00,0.2115
9617.00,0.2114
9616.00,0.2114
9615.00,0.2114
9614.00,0.2115
9613.00,0.2116
9612.00,0.2117
9611.00,0.2117
9610.00,0.2115
9609.00,0.2113
9608.00,0.2111
9607.00,0.2110
9606.00,0.2111
9605.00,0.2112
9604.00,0.2114
9603.00,0.2114
9602.00,0.2112
9601.00,0.2110
9600.00,0.2109
9599.00,0.2110
9598.00,0.2112
9597.00,0.2114
9596.00,0.2115
9595.00,0.2115
9594.00,0.2114
9593.00,0.2114
9592.00,0.2114
9591.00,0.2115
9590.00,0.2116
9589.00,0.2116
9588.00,0.2115
9587.00,0.2114
9586.00,0.2112
9585.00,0.2111
9584.00,0.2110
9583.00,0.2109
9582.00,0.2109
9581.00,0.2109
9580.00,0.2109
9579.00,0.2110
9578.00,0.2110
9577.00,0.2111
9576.00,0.2110
9575.00,0.2109
9574.00,0.2109
9573.00,0.2108
9572.00,0.2109
9571.00,0.2110
9570.00,0.2110
9569.00,0.2109
9568.00,0.2108
9567.00,0.2108
9566.00,0.2108
9565.00,0.2108
9564.00,0.2108
9563.00,0.2108
9562.00,0.2106
9561.00,0.2105
9560.00,0.2105
9559.00,0.2106
9558.00,0.2107
9557.00,0.2107
9556.00,0.2108
9555.00,0.2108
9554.00,0.2109
9553.00,0.2110
9552.00,0.2110
9551.00,0.2110
9550.00,0.2110
9549.00,0.2110
9548.00,0.2109
9547.00,0.2109
9546.00,0.2108
9545.00,0.2108
9544.00,0.2108
9543.00,0.2109
9542.00,0.2110
9541.00,0.2111
9540.00,0.2111
9539.00,0.2111
9538.00,0.2111
9537.00,0.2110
9536.00,0.2109
9535.00,0.2108
9534.00,0.2108
9533.00,0.2108
9532.00,0.2107
9531.00,0.2107
9530.00,0.2107
9529.00,0.2107
9528.00,0.2107
9527.00,0.2107
9526.00,0.2107
9525.00,0.2106
9524.00,0.2106
9523.00,0.2106
9522.00,0.2105
9521.00,0.2105
9520.00,0.2103
9519.00,0.2101
9518.00,0.2100
9517.00,0.2100
9516.00,0.2102
9515.00,0.2103
9514.00,0.2103
9513.00,0.2102
9512.00,0.2101
9511.00,0.2100
9510.00,0.2100
9509.00,0.2101
9508.00,0.2101
9507.00,0.2102
9506.00,0.2102
9505.00,0.2102
9504.00,0.2102
9503.00,0.2103
9502.00,0.2104
9501.00,0.2105
9500.00,0.2106
9499.00,0.2106
9498.00,0.2105
9497.00,0.2104
9496.00,0.2103
9495.00,0.2102
9494.00,0.2101
9493.00,0.2100
9492.00,0.2099
9491.00,0.2099
9490.00,0.2099
9489.00,0.2100
9488.00,0.2102
9487.00,0.2103
9486.00,0.2102
9485.00,0.2101
9484.00,0.2101
9483.00,0.2101
9482.00,0.2102
9481.00,0.2103
9480.00,0.2103
9479.00,0.2102
9478.00,0.2101
9477.00,0.2100
9476.00,0.2100
9475.00,0.2101
9474.00,0.2102
9473.00,0.2102
9472.00,0.2102
9471.00,0.2102
9470.00,0.2102
9469.00,0.2102
9468.00,0.2102
9467.00,0.2102
9466.00,0.2101
9465.00,0.2100
9464.00,0.2100
9463.00,0.2099
9462.00,0.2098
9461.00,0.2097
9460.00,0.2096
9459.00,0.2096
9458.00,0.2096
9457.00,0.2097
9456.00,0.2097
9455.00,0.2097
9454.00,0.2097
9453.00,0.2096
9452.00,0.2095
9451.00,0.2095
9450.00,0.2095
9449.00,0.2096
9448.00,0.2095
9447.00,0.2095
9446.00,0.2094
9445.00,0.2093
9444.00,0.2094
9443.00,0.2094
9442.00,0.2095
9441.00,0.2095
9440.00,0.2094
9439.00,0.2094
9438.00,0.2094
9437.00,0.2095
9436.00,0.2095
9435.00,0.2096
9434.00,0.2096
9433.00,0.2096
9432.00,0.2096
9431.00,0.2097
9430.00,0.2097
9429.00,0.2098
9428.00,0.2097
9427.00,0.2096
9426.00,0.2095
9425.00,0.2096
9424.00,0.2097
9423.00,0.2098
9422.00,0.2099
9421.00,0.2098
9420.00,0.2096
9419.00,0.2094
9418.00,0.2094
9417.00,0.2094
9416.00,0.2094
9415.00,0.2094
9414.00,0.2093
9413.00,0.2092
9412.00,0.2091
9411.00,0.2091
9410.00,0.2092
9409.00,0.2093
9408.00,0.2093
9407.00,0.2093
9406.00,0.2092
9405.00,0.2091
9404.00,0.2090
9403.00,0.2089
9402.00,0.2089
9401.00,0.2089
9400.00,0.2088
9399.00,0.2088
9398.00,0.2088
9397.00,0.2089
9396.00,0.2090
9395.00,0.2090
9394.00,0.2090
9393.00,0.2089
9392.00,0.2089
9391.00,0.2090
9390.00,0.2091
9389.00,0.2091
9388.00,0.2091
9387.00,0.2089
9386.00,0.2089
9385.00,0.2089
9384.00,0.2091
9383.00,0.2092
9382.00,0.2091
9381.00,0.2089
9380.00,0.2087
9379.00,0.2086
9378.00,0.2087
9377.00,0.2087
9376.00,0.2087
9375.00,0.2085
9374.00,0.2083
9373.00,0.2082
9372.00,0.2083
9371.00,0.2084
9370.00,0.2084
9369.00,0.2085
9368.00,0.2084
9367.00,0.2084
9366.00,0.2084
9365.00,0.2085
9364.00,0.2086
9363.00,0.2086
9362.00,0.2085
9361.00,0.2084
9360.00,0.2084
9359.00,0.2085
9358.00,0.2086
9357.00,0.2089
9356.00,0.2090
9355.00,0.2091
9354.00,0.2091
9353.00,0.2090
9352.00,0.2089
9351.00,0.2089
9350.00,0.2089
9349.00,0.2088
9348.00,0.2086
9347.00,0.2084
9346.00,0.2082
9345.00,0.2082
9344.00,0.2082
9343.00,0.2082
9342.00,0.2083
9341.00,0.2084
9340.00,0.2085
9339.00,0.2085
9338.00,0.2085
9337.00,0.2085
9336.00,0.2084
9335.00,0.2084
9334.00,0.2084
9333.00,0.2084
9332.00,0.2084
9331.00,0.2085
9330.00,0.2085
9329.00,0.2084
9328.00,0.2083
9327.00,0.2082
9326.00,0.2081
9325.00,0.2081
9324.00,0.2082
9323.00,0.2082
9322.00,0.2080
9321.00,0.2079
9320.00,0.2078
9319.00,0.2078
9318.00,0.2079
9317.00,0.2080
9316.00,0.2080
9315.00,0.2080
9314.00,0.2079
9313.00,0.2079
9312.00,0.2078
9311.00,0.2078
9310.00,0.2078
9309.00,0.2079
9308.00,0.2081
9307.00,0.2083
9306.00,0.2084
9305.00,0.2084
9304.00,0.2083
9303.00,0.2084
9302.00,0.2085
9301.00,0.2086
9300.00,0.2085
9299.00,0.2084
9298.00,0.2081
9297.00,0.2080
9296.00,0.2080
9295.00,0.2080
9294.00,0.2080
9293.00,0.2079
9292.00,0.2079
9291.00,0.2079
9290.00,0.2080
9289.00,0.2080
9288.00,0.2081
9287.00,0.2080
9286.00,0.2080
9285.00,0.2079
9284.00,0.2079
9283.00,0.2078
9282.00,0.2078
9281.00,0.2078
9280.00,0.2077
9279.00,0.2077
9278.00,0.2076
9277.00,0.2076
9276.00,0.2077
9275.00,0.2078
9274.00,0.2079
9273.00,0.2078
9272.00,0.2078
9271.00,0.2077
9270.00,0.2077
9269.00,0.2078
9268.00,0.2079
9267.00,0.2079
9266.00,0.2079
9265.00,0.2079
9264.00,0.2079
9263.00,0.2079
9262.00,0.2079
9261.00,0.2079
9260.00,0.2079
9259.00,0.2079
9258.00,0.2078
9257.00,0.2078
9256.00,0.2077
9255.00,0.2078
9254.00,0.2078
9253.00,0.2079
9252.00,0.2078
9251.00,0.2077
9250.00,0.2075
9249.00,0.2074
9248.00,0.2074
9247.00,0.2074
9246.00,0.2074
9245.00,0.2073
9244.00,0.2072
9243.00,0.2071
9242.00,0.2072
9241.00,0.2073
9240.00,0.2075
9239.00,0.2076
9238.00,0.2076
9237.00,0.2076
9236.00,0.2076
9235.00,0.2076
9234.00,0.2076
9233.00,0.2077
9232.00,0.2077
9231.00,0.2077
9230.00,0.2078
9229.00,0.2078
9228.00,0.2077
9227.00,0.2077
9226.00,0.2076
9225.00,0.2076
9224.00,0.2075
9223.00,0.2074
9222.00,0.2073
9221.00,0.2072
9220.00,0.2071
9219.00,0.2071
9218.00,0.2071
9217.00,0.2070
9216.00,0.2070
9215.00,0.2069
9214.00,0.2069
9213.00,0.2070
9212.00,0.2072
9211.00,0.2073
9210.00,0.2073
9209.00,0.2073
9208.00,0.2073
9207.00,0.2072
9206.00,0.2072
9205.00,0.2073
9204.00,0.2073
9203.00,0.2073
9202.00,0.2072
9201.00,0.2071
9200.00,0.2070
9199.00,0.2070
9198.00,0.2071
9197.00,0.2072
9196.00,0.2073
9195.00,0.2074
9194.00,0.2074
9193.00,0.2073
9192.00,0.2073
9191.00,0.2072
9190.00,0.2071
9189.00,0.2071
9188.00,0.2070
9187.00,0.2070
9186.00,0.2070
9185.00,0.2070
9184.00,0.2070
9183.00,0.2071
9182.00,0.2072
9181.00,0.2073
9180.00,0.2073
9179.00,0.2073
9178.00,0.2072
9177.00,0.2071
9176.00,0.2070
9175.00,0.2068
9174.00,0.2068
9173.00,0.2067
9172.00,0.2066
9171.00,0.2067
9170.00,0.2067
9169.00,0.2068
9168.00,0.2069
9167.00,0.2069
9166.00,0.2069
9165.00,0.2069
9164.00,0.2069
9163.00,0.2070
9162.00,0.2070
9161.00,0.2070
9160.00,0.2070
9159.00,0.2070
9158.00,0.2070
9157.00,0.2070
9156.00,0.2071
9155.00,0.2071
9154.00,0.2071
9153.00,0.2071
9152.00,0.2071
9151.00,0.2071
9150.00,0.2070
9149.00,0.2069
9148.00,0.2068
9147.00,0.2068
9146.00,0.2068
9145.00,0.2068
9144.00,0.2068
9143.00,0.2068
9142.00,0.2067
9141.00,0.2066
9140.00,0.2066
9139.00,0.2067
9138.00,0.2067
9137.00,0.2067
9136.00,0.2067
9135.00,0.2067
9134.00,0.2067
9133.00,0.2066
9132.00,0.2065
9131.00,0.2064
9130.00,0.2063
9129.00,0.2063
9128.00,0.2063
9127.00,0.2063
9126.00,0.2062
9125.00,0.2062
9124.00,0.2062
9123.00,0.2062
9122.00,0.2062
9121.00,0.2062
9120.00,0.2062
9119.00,0.2063
9118.00,0.2063
9117.00,0.2063
9116.00,0.2063
9115.00,0.2063
9114.00,0.2063
9113.00,0.2064
9112.00,0.2065
9111.00,0.2066
9110.00,0.2067
9109.00,0.2067
9108.00,0.2067
9107.00,0.2067
9106.00,0.2066
9105.00,0.2066
9104.00,0.2066
9103.00,0.2065
9102.00,0.2065
9101.00,0.2065
9100.00,0.2065
9099.00,0.2065
9098.00,0.2065
9097.00,0.2065
9096.00,0.2065
9095.00,0.2065
9094.00,0.2065
9093.00,0.2065
9092.00,0.2065
9091.00,0.2066
9090.00,0.2066
9089.00,0.2066
9088.00,0.2065
9087.00,0.2065
9086.00,0.2065
9085.00,0.2064
9084.00,0.2063
9083.00,0.2062
9082.00,0.2060
9081.00,0.2060
9080.00,0.2060
9079.00,0.2060
9078.00,0.2060
9077.00,0.2058
9076.00,0.2057
9075.00,0.2057
9074.00,0.2058
9073.00,0.2059
9072.00,0.2059
9071.00,0.2057
9070.00,0.2056
9069.00,0.2055
9068.00,0.2056
9067.00,0.2057
9066.00,0.2058
9065.00,0.2058
9064.00,0.2057
9063.00,0.2056
9062.00,0.2057
9061.00,0.2058
9060.00,0.2059
9059.00,0.2059
9058.00,0.2059
9057.00,0.2058
9056.00,0.2058
9055.00,0.2058
9054.00,0.2059
9053.00,0.2060
9052.00,0.2060
9051.00,0.2059
9050.00,0.2058
9049.00,0.2058
9048.00,0.2058
9047.00,0.2059
9046.00,0.2058
9045.00,0.2058
9044.00,0.2058
9043.00,0.2058
9042.00,0.2058
9041.00,0.2057
9040.00,0.2057
9039.00,0.2057
9038.00,0.2058
9037.00,0.2059
9036.00,0.2060
9035.00,0.2060
9034.00,0.2059
9033.00,0.2059
9032.00,0.2059
9031.00,0.2060
9030.00,0.2061
9029.00,0.2061
9028.00,0.2060
9027.00,0.2058
9026.00,0.2057
9025.00,0.2056
9024.00,0.2057
9023.00,0.2057
9022.00,0.2057
9021.00,0.2056
9020.00,0.2055
9019.00,0.2054
9018.00,0.2054
9017.00,0.2054
9016.00,0.2055
9015.00,0.2055
9014.00,0.2055
9013.00,0.2055
9012.00,0.2055
9011.00,0.2055
9010.00,0.2055
9009.00,0.2054
9008.00,0.2054
9007.00,0.2054
9006.00,0.2053
9005.00,0.2052
9004.00,0.2051
9003.00,0.2051
9002.00,0.2050
9001.00,0.2051
9000.00,0.2051
8999.00,0.2052
8998.00,0.2053
8997.00,0.2053
8996.00,0.2053
8995.00,0.2053
8994.00,0.2052
8993.00,0.2052
8992.00,0.2051
8991.00,0.2051
8990.00,0.2052
8989.00,0.2053
8988.00,0.2054
8987.00,0.2054
8986.00,0.2054
8985.00,0.2054
8984.00,0.2054
8983.00,0.2054
8982.00,0.2054
8981.00,0.2055
8980.00,0.2055
8979.00,0.2055
8978.00,0.2054
8977.00,0.2054
8976.00,0.2054
8975.00,0.2054
8974.00,0.2054
8973.00,0.2053
8972.00,0.2052
8971.00,0.2052
8970.00,0.2051
8969.00,0.2050
8968.00,0.2050
8967.00,0.2050
8966.00,0.2050
8965.00,0.2051
8964.00,0.2052
8963.00,0.2053
8962.00,0.2053
8961.00,0.2052
8960.00,0.2052
8959.00,0.2052
8958.00,0.2052
8957.00,0.2051
8956.00,0.2051
8955.00,0.2051
8954.00,0.2050
8953.00,0.2050
8952.00,0.2050
8951.00,0.2050
8950.00,0.2050
8949.00,0.2049
8948.00,0.2049
8947.00,0.2049
8946.00,0.2049
8945.00,0.2049
8944.00,0.2049
8943.00,0.2050
8942.00,0.2050
8941.00,0.2051
8940.00,0.2051
8939.00,0.2052
8938.00,0.2053
8937.00,0.2054
8936.00,0.2054
8935.00,0.2055
8934.00,0.2055
8933.00,0.2054
8932.00,0.2054
8931.00,0.2054
8930.00,0.2054
8929.00,0.2054
8928.00,0.2053
8927.00,0.2053
8926.00,0.2052
8925.00,0.2052
8924.00,0.2052
8923.00,0.2053
8922.00,0.2053
8921.00,0.2053
8920.00,0.2053
8919.00,0.2053
8918.00,0.2053
8917.00,0.2053
8916.00,0.2053
8915.00,0.2052
8914.00,0.2052
8913.00,0.2053
8912.00,0.2053
8911.00,0.2053
8910.00,0.2053
8909.00,0.2052
8908.00,0.2052
8907.00,0.2052
8906.00,0.2052
8905.00,0.2052
8904.00,0.2052
8903.00,0.2052
8902.00,0.2051
8901.00,0.2051
8900.00,0.2050
8899.00,0.2050
8898.00,0.2050
8897.00,0.2051
8896.00,0.2051
8895.00,0.2050
8894.00,0.2049
8893.00,0.2049
8892.00,0.2050
8891.00,0.2052
8890.00,0.2053
8889.00,0.2054
8888.00,0.2054
8887.00,0.2053
8886.00,0.2053
8885.00,0.2053
8884.00,0.2054
8883.00,0.2054
8882.00,0.2054
8881.00,0.2052
8880.00,0.2052
8879.00,0.2052
8878.00,0.2054
8877.00,0.2054
8876.00,0.2055
8875.00,0.2054
8874.00,0.2053
8873.00,0.2053
8872.00,0.2054
8871.00,0.2055
8870.00,0.2056
8869.00,0.2056
8868.00,0.2055
8867.00,0.2054
8866.00,0.2053
8865.00,0.2054
8864.00,0.2055
8863.00,0.2055
8862.00,0.2055
8861.00,0.2053
8860.00,0.2051
8859.00,0.2051
8858.00,0.2053
8857.00,0.2055
8856.00,0.2057
8855.00,0.2058
8854.00,0.2058
8853.00,0.2057
8852.00,0.2057
8851.00,0.2058
8850.00,0.2059
8849.00,0.2059
8848.00,0.2058
8847.00,0.2056
8846.00,0.2055
8845.00,0.2055
8844.00,0.2056
8843.00,0.2056
8842.00,0.2056
8841.00,0.2055
8840.00,0.2055
8839.00,0.2055
8838.00,0.2056
8837.00,0.2057
8836.00,0.2058
8835.00,0.2058
8834.00,0.2059
8833.00,0.2060
8832.00,0.2060
8831.00,0.2061
8830.00,0.2061
8829.00,0.2062
8828.00,0.2062
8827.00,0.2063
8826.00,0.2064
8825.00,0.2064
8824.00,0.2064
8823.00,0.2065
8822.00,0.2066
8821.00,0.2068
8820.00,0.2069
8819.00,0.2071
8818.00,0.2072
8817.00,0.2072
8816.00,0.2071
8815.00,0.2071
8814.00,0.2071
8813.00,0.2071
8812.00,0.2071
8811.00,0.2070
8810.00,0.2069
8809.00,0.2068
8808.00,0.2069
8807.00,0.2069
8806.00,0.2070
8805.00,0.2069
8804.00,0.2068
8803.00,0.2067
8802.00,0.2067
8801.00,0.2066
8800.00,0.2066
8799.00,0.2065
8798.00,0.2065
8797.00,0.2065
8796.00,0.2066
8795.00,0.2067
8794.00,0.2068
8793.00,0.2069
8792.00,0.2071
8791.00,0.2072
8790.00,0.2072
8789.00,0.2072
8788.00,0.2072
8787.00,0.2072
8786.00,0.2072
8785.00,0.2073
8784.00,0.2073
8783.00,0.2073
8782.00,0.2072
8781.00,0.2073
8780.00,0.2074
8779.00,0.2076
8778.00,0.2078
8777.00,0.2080
8776.00,0.2081
8775.00,0.2081
8774.00,0.2081
8773.00,0.2081
8772.00,0.2081
8771.00,0.2082
8770.00,0.2082
8769.00,0.2082
8768.00,0.2082
8767.00,0.2082
8766.00,0.2082
8765.00,0.2083
8764.00,0.2083
8763.00,0.2083
8762.00,0.2083
8761.00,0.2084
8760.00,0.2084
8759.00,0.2083
8758.00,0.2083
8757.00,0.2082
8756.00,0.2082
8755.00,0.2083
8754.00,0.2084
8753.00,0.2084
8752.00,0.2084
8751.00,0.2085
8750.00,0.2085
8749.00,0.2085
8748.00,0.2086
8747.00,0.2086
8746.00,0.2088
8745.00,0.2089
8744.00,0.2091
8743.00,0.2092
8742.00,0.2093
8741.00,0.2093
8740.00,0.2094
8739.00,0.2094
8738.00,0.2095
8737.00,0.2096
8736.00,0.2096
8735.00,0.2095
8734.00,0.2095
8733.00,0.2094
8732.00,0.2094
8731.00,0.2095
8730.00,0.2096
8729.00,0.2097
8728.00,0.2097
8727.00,0.2098
8726.00,0.2098
8725.00,0.2099
8724.00,0.2100
8723.00,0.2100
8722.00,0.2100
8721.00,0.2101
8720.00,0.2102
8719.00,0.2102
8718.00,0.2103
8717.00,0.2103
8716.00,0.2103
8715.00,0.2103
8714.00,0.2103
8713.00,0.2104
8712.00,0.2105
8711.00,0.2106
8710.00,0.2107
8709.00,0.2108
8708.00,0.2109
8707.00,0.2109
8706.00,0.2110
8705.00,0.2111
8704.00,0.2112
8703.00,0.2113
8702.00,0.2114
8701.00,0.2114
8700.00,0.2113
8699.00,0.2113
8698.00,0.2114
8697.00,0.2115
8696.00,0.2116
8695.00,0.2116
8694.00,0.2116
8693.00,0.2116
8692.00,0.2116
8691.00,0.2116
8690.00,0.2117
8689.00,0.2117
8688.00,0.2118
8687.00,0.2120
8686.00,0.2121
8685.00,0.2122
8684.00,0.2123
8683.00,0.2123
8682.00,0.2124
8681.00,0.2125
8680.00,0.2128
8679.00,0.2129
8678.00,0.2130
8677.00,0.2129
8676.00,0.2128
8675.00,0.2128
8674.00,0.2129
8673.00,0.2131
8672.00,0.2132
8671.00,0.2132
8670.00,0.2132
8669.00,0.2132
8668.00,0.2134
8667.00,0.2136
8666.00,0.2137
8665.00,0.2138
8664.00,0.2138
8663.00,0.2137
8662.00,0.2136
8661.00,0.2137
8660.00,0.2138
8659.00,0.2139
8658.00,0.2140
8657.00,0.2140
8656.00,0.2140
8655.00,0.2142
8654.00,0.2143
8653.00,0.2145
8652.00,0.2145
8651.00,0.2146
8650.00,0.2147
8649.00,0.2148
8648.00,0.2149
8647.00,0.2150
8646.00,0.2151
8645.00,0.2151
8644.00,0.2152
8643.00,0.2152
8642.00,0.2153
8641.00,0.2153
8640.00,0.2154
8639.00,0.2155
8638.00,0.2155
8637.00,0.2156
8636.00,0.2157
8635.00,0.2157
8634.00,0.2158
8633.00,0.2159
8632.00,0.2160
8631.00,0.2161
8630.00,0.2162
8629.00,0.2163
8628.00,0.2163
8627.00,0.2164
8626.00,0.2165
8625.00,0.2166
8624.00,0.2168
8623.00,0.2169
8622.00,0.2169
8621.00,0.2169
8620.00,0.2170
8619.00,0.2171
8618.00,0.2171
8617.00,0.2172
8616.00,0.2172
8615.00,0.2172
8614.00,0.2172
8613.00,0.2173
8612.00,0.2173
8611.00,0.2175
8610.00,0.2176
8609.00,0.2178
8608.00,0.2179
8607.00,0.2180
8606.00,0.2180
8605.00,0.2181
8604.00,0.2181
8603.00,0.2181
8602.00,0.2181
8601.00,0.2181
8600.00,0.2181
8599.00,0.2182
8598.00,0.2183
8597.00,0.2183
8596.00,0.2183
8595.00,0.2184
8594.00,0.2185
8593.00,0.2187
8592.00,0.2188
8591.00,0.2188
8590.00,0.2188
8589.00,0.2188
8588.00,0.2189
8587.00,0.2190
8586.00,0.2191
8585.00,0.2191
8584.00,0.2191
8583.00,0.2191
8582.00,0.2192
8581.00,0.2194
8580.00,0.2195
8579.00,0.2195
8578.00,0.2195
8577.00,0.2195
8576.00,0.2195
8575.00,0.2196
8574.00,0.2198
8573.00,0.2199
8572.00,0.2200
8571.00,0.2201
8570.00,0.2203
8569.00,0.2204
8568.00,0.2206
8567.00,0.2207
8566.00,0.2207
8565.00,0.2207
8564.00,0.2207
8563.00,0.2207
8562.00,0.2208
8561.00,0.2209
8560.00,0.2209
8559.00,0.2208
8558.00,0.2207
8557.00,0.2207
8556.00,0.2207
8555.00,0.2208
8554.00,0.2209
8553.00,0.2209
8552.00,0.2210
8551.00,0.2211
8550.00,0.2212
8549.00,0.2213
8548.00,0.2214
8547.00,0.2214
8546.00,0.2215
8545.00,0.2215
8544.00,0.2215
8543.00,0.2215
8542.00,0.2215
8541.00,0.2215
8540.00,0.2217
8539.00,0.2218
8538.00,0.2219
8537.00,0.2220
8536.00,0.2221
8535.00,0.2222
8534.00,0.2224
8533.00,0.2226
8532.00,0.2227
8531.00,0.2228
8530.00,0.2228
8529.00,0.2229
8528.00,0.2229
8527.00,0.2229
8526.00,0.2228
8525.00,0.2228
8524.00,0.2229
8523.00,0.2229
8522.00,0.2229
8521.00,0.2230
8520.00,0.2230
8519.00,0.2231
8518.00,0.2232
8517.00,0.2232
8516.00,0.2232
8515.00,0.2233
8514.00,0.2234
8513.00,0.2235
8512.00,0.2236
8511.00,0.2237
8510.00,0.2238
8509.00,0.2238
8508.00,0.2239
8507.00,0.2240
8506.00,0.2241
8505.00,0.2241
8504.00,0.2242
8503.00,0.2242
8502.00,0.2243
8501.00,0.2243
8500.00,0.2244
8499.00,0.2244
8498.00,0.2245
8497.00,0.2245
8496.00,0.2245
8495.00,0.2246
8494.00,0.2246
8493.00,0.2246
8492.00,0.2248
8491.00,0.2249
8490.00,0.2250
8489.00,0.2250
8488.00,0.2250
8487.00,0.2251
8486.00,0.2252
8485.00,0.2253
8484.00,0.2254
8483.00,0.2254
8482.00,0.2254
8481.00,0.2254
8480.00,0.2255
8479.00,0.2255
8478.00,0.2256
8477.00,0.2256
8476.00,0.2256
8475.00,0.2256
8474.00,0.2256
8473.00,0.2257
8472.00,0.2259
8471.00,0.2259
8470.00,0.2260
8469.00,0.2260
8468.00,0.2261
8467.00,0.2263
8466.00,0.2263
8465.00,0.2264
8464.00,0.2264
8463.00,0.2265
8462.00,0.2265
8461.00,0.2266
8460.00,0.2266
8459.00,0.2266
8458.00,0.2267
8457.00,0.2268
8456.00,0.2269
8455.00,0.2270
8454.00,0.2270
8453.00,0.2270
8452.00,0.2271
8451.00,0.2271
8450.00,0.2272
8449.00,0.2272
8448.00,0.2272
8447.00,0.2272
8446.00,0.2272
8445.00,0.2272
8444.00,0.2272
8443.00,0.2272
8442.00,0.2273
8441.00,0.2274
8440.00,0.2275
8439.00,0.2276
8438.00,0.2277
8437.00,0.2278
8436.00,0.2279
8435.00,0.2280
8434.00,0.2281
8433.00,0.2282
8432.00,0.2282
8431.00,0.2282
8430.00,0.2282
8429.00,0.2282
8428.00,0.2282
8427.00,0.2282
8426.00,0.2283
8425.00,0.2283
8424.00,0.2284
8423.00,0.2285
8422.00,0.2286
8421.00,0.2288
8420.00,0.2289
8419.00,0.2290
8418.00,0.2290
8417.00,0.2290
8416.00,0.2289
8415.00,0.2289
8414.00,0.2290
8413.00,0.2290
8412.00,0.2289
8411.00,0.2289
8410.00,0.2288
8409.00,0.2289
8408.00,0.2290
8407.00,0.2291
8406.00,0.2292
8405.00,0.2292
8404.00,0.2293
8403.00,0.2293
8402.00,0.2294
8401.00,0.2294
8400.00,0.2295
8399.00,0.2295
8398.00,0.2295
8397.00,0.2294
8396.00,0.2294
8395.00,0.2294
8394.00,0.2294
8393.00,0.2295
8392.00,0.2295
8391.00,0.2295
8390.00,0.2294
8389.00,0.2293
8388.00,0.2294
8387.00,0.2295
8386.00,0.2296
8385.00,0.2296
8384.00,0.2296
8383.00,0.2296
8382.00,0.2296
8381.00,0.2297
8380.00,0.2297
8379.00,0.2298
8378.00,0.2298
8377.00,0.2299
8376.00,0.2300
8375.00,0.2300
8374.00,0.2300
8373.00,0.2299
8372.00,0.2300
8371.00,0.2300
8370.00,0.2300
8369.00,0.2300
8368.00,0.2299
8367.00,0.2299
8366.00,0.2299
8365.00,0.2300
8364.00,0.2301
8363.00,0.2301
8362.00,0.2302
8361.00,0.2302
8360.00,0.2302
8359.00,0.2301
8358.00,0.2301
8357.00,0.2302
8356.00,0.2303
8355.00,0.2304
8354.00,0.2305
8353.00,0.2305
8352.00,0.2305
8351.00,0.2305
8350.00,0.2305
8349.00,0.2305
8348.00,0.2305
8347.00,0.2304
8346.00,0.2304
8345.00,0.2304
8344.00,0.2305
8343.00,0.2305
8342.00,0.2305
8341.00,0.2305
8340.00,0.2305
8339.00,0.2305
8338.00,0.2306
8337.00,0.2305
8336.00,0.2305
8335.00,0.2304
8334.00,0.2304
8333.00,0.2304
8332.00,0.2304
8331.00,0.2304
8330.00,0.2304
8329.00,0.2304
8328.00,0.2303
8327.00,0.2303
8326.00,0.2303
8325.00,0.2303
8324.00,0.2303
8323.00,0.2304
8322.00,0.2304
8321.00,0.2304
8320.00,0.2305
8319.00,0.2306
8318.00,0.2306
8317.00,0.2306
8316.00,0.2305
8315.00,0.2305
8314.00,0.2305
8313.00,0.2305
8312.00,0.2305
8311.00,0.2304
8310.00,0.2305
8309.00,0.2305
8308.00,0.2305
8307.00,0.2305
8306.00,0.2305
8305.00,0.2305
8304.00,0.2305
8303.00,0.2305
8302.00,0.2306
8301.00,0.2306
8300.00,0.2306
8299.00,0.2306
8298.00,0.2306
8297.00,0.2306
8296.00,0.2306
8295.00,0.2306
8294.00,0.2307
8293.00,0.2307
8292.00,0.2306
8291.00,0.2306
8290.00,0.2305
8289.00,0.2305
8288.00,0.2305
8287.00,0.2305
8286.00,0.2305
8285.00,0.2304
8284.00,0.2303
8283.00,0.2303
8282.00,0.2304
8281.00,0.2304
8280.00,0.2304
8279.00,0.2304
8278.00,0.2303
8277.00,0.2303
8276.00,0.2303
8275.00,0.2303
8274.00,0.2302
8273.00,0.2302
8272.00,0.2301
8271.00,0.2301
8270.00,0.2301
8269.00,0.2301
8268.00,0.2302
8267.00,0.2302
8266.00,0.2302
8265.00,0.2302
8264.00,0.2302
8263.00,0.2302
8262.00,0.2302
8261.00,0.2301
8260.00,0.2301
8259.00,0.2301
8258.00,0.2301
8257.00,0.2302
8256.00,0.2302
8255.00,0.2302
8254.00,0.2302
8253.00,0.2301
8252.00,0.2300
8251.00,0.2300
8250.00,0.2299
8249.00,0.2299
8248.00,0.2298
8247.00,0.2297
8246.00,0.2297
8245.00,0.2297
8244.00,0.2297
8243.00,0.2298
8242.00,0.2298
8241.00,0.2298
8240.00,0.2298
8239.00,0.2297
8238.00,0.2296
8237.00,0.2295
8236.00,0.2295
8235.00,0.2295
8234.00,0.2295
8233.00,0.2295
8232.00,0.2295
8231.00,0.2295
8230.00,0.2295
8229.00,0.2295
8228.00,0.2295
8227.00,0.2295
8226.00,0.2294
8225.00,0.2294
8224.00,0.2293
8223.00,0.2294
8222.00,0.2294
8221.00,0.2294
8220.00,0.2294
8219.00,0.2294
8218.00,0.2294
8217.00,0.2293
8216.00,0.2292
8215.00,0.2292
8214.00,0.2292
8213.00,0.2291
8212.00,0.2291
8211.00,0.2290
8210.00,0.2290
8209.00,0.2290
8208.00,0.2290
8207.00,0.2290
8206.00,0.2290
8205.00,0.2290
8204.00,0.2289
8203.00,0.2289
8202.00,0.2289
8201.00,0.2289
8200.00,0.2289
8199.00,0.2289
8198.00,0.2288
8197.00,0.2287
8196.00,0.2286
8195.00,0.2286
8194.00,0.2286
8193.00,0.2286
8192.00,0.2286
8191.00,0.2285
8190.00,0.2285
8189.00,0.2285
8188.00,0.2285
8187.00,0.2284
8186.00,0.2283
8185.00,0.2282
8184.00,0.2281
8183.00,0.2280
8182.00,0.2280
8181.00,0.2280
8180.00,0.2280
8179.00,0.2280
8178.00,0.2280
8177.00,0.2279
8176.00,0.2278
8175.00,0.2278
8174.00,0.2278
8173.00,0.2278
8172.00,0.2277
8171.00,0.2276
8170.00,0.2276
8169.00,0.2276
8168.00,0.2276
8167.00,0.2276
8166.00,0.2276
8165.00,0.2276
8164.00,0.2275
8163.00,0.2275
8162.00,0.2275
8161.00,0.2275
8160.00,0.2275
8159.00,0.2275
8158.00,0.2274
8157.00,0.2273
8156.00,0.2272
8155.00,0.2271
8154.00,0.2271
8153.00,0.2270
8152.00,0.2270
8151.00,0.2270
8150.00,0.2270
8149.00,0.2270
8148.00,0.2270
8147.00,0.2269
8146.00,0.2269
8145.00,0.2269
8144.00,0.2268
8143.00,0.2268
8142.00,0.2268
8141.00,0.2267
8140.00,0.2267
8139.00,0.2266
8138.00,0.2266
8137.00,0.2266
8136.00,0.2266
8135.00,0.2265
8134.00,0.2263
8133.00,0.2262
8132.00,0.2262
8131.00,0.2262
8130.00,0.2262
8129.00,0.2262
8128.00,0.2262
8127.00,0.2262
8126.00,0.2261
8125.00,0.2261
8124.00,0.2261
8123.00,0.2261
8122.00,0.2261
8121.00,0.2260
8120.00,0.2260
8119.00,0.2259
8118.00,0.2259
8117.00,0.2260
8116.00,0.2260
8115.00,0.2260
8114.00,0.2260
8113.00,0.2260
8112.00,0.2259
8111.00,0.2259
8110.00,0.2258
8109.00,0.2258
8108.00,0.2257
8107.00,0.2257
8106.00,0.2256
8105.00,0.2256
8104.00,0.2255
8103.00,0.2255
8102.00,0.2255
8101.00,0.2255
8100.00,0.2255
8099.00,0.2254
8098.00,0.2253
8097.00,0.2253
8096.00,0.2252
8095.00,0.2252
8094.00,0.2251
8093.00,0.2251
8092.00,0.2251
8091.00,0.2250
8090.00,0.2250
8089.00,0.2249
8088.00,0.2248
8087.00,0.2248
8086.00,0.2247
8085.00,0.2246
8084.00,0.2245
8083.00,0.2245
8082.00,0.2245
8081.00,0.2245
8080.00,0.2245
8079.00,0.2245
8078.00,0.2245
8077.00,0.2246
8076.00,0.2246
8075.00,0.2245
8074.00,0.2244
8073.00,0.2244
8072.00,0.2243
8071.00,0.2243
8070.00,0.2242
8069.00,0.2242
8068.00,0.2242
8067.00,0.2242
8066.00,0.2241
8065.00,0.2241
8064.00,0.2241
8063.00,0.2240
8062.00,0.2240
8061.00,0.2240
8060.00,0.2239
8059.00,0.2239
8058.00,0.2238
8057.00,0.2238
8056.00,0.2238
8055.00,0.2237
8054.00,0.2236
8053.00,0.2235
8052.00,0.2235
8051.00,0.2235
8050.00,0.2234
8049.00,0.2234
8048.00,0.2233
8047.00,0.2233
8046.00,0.2233
8045.00,0.2233
8044.00,0.2233
8043.00,0.2233
8042.00,0.2232
8041.00,0.2232
8040.00,0.2232
8039.00,0.2232
8038.00,0.2232
8037.00,0.2232
8036.00,0.2231
8035.00,0.2231
8034.00,0.2231
8033.00,0.2231
8032.00,0.2230
8031.00,0.2230
8030.00,0.2229
8029.00,0.2229
8028.00,0.2228
8027.00,0.2228
8026.00,0.2227
8025.00,0.2227
8024.00,0.2227
8023.00,0.2227
8022.00,0.2227
8021.00,0.2227
8020.00,0.2226
8019.00,0.2226
8018.00,0.2225
8017.00,0.2225
8016.00,0.2224
8015.00,0.2224
8014.00,0.2224
8013.00,0.2225
8012.00,0.2225
8011.00,0.2225
8010.00,0.2225
8009.00,0.2225
8008.00,0.2225
8007.00,0.2224
8006.00,0.2224
8005.00,0.2223
8004.00,0.2223
8003.00,0.2222
8002.00,0.2222
8001.00,0.2222
8000.00,0.2221
7999.00,0.2220
7998.00,0.2220
7997.00,0.2220
7996.00,0.2220
7995.00,0.2219
7994.00,0.2218
7993.00,0.2217
7992.00,0.2217
7991.00,0.2217
7990.00,0.2216
7989.00,0.2216
7988.00,0.2215
7987.00,0.2214
7986.00,0.2213
7985.00,0.2213
7984.00,0.2212
7983.00,0.2212
7982.00,0.2212
7981.00,0.2213
7980.00,0.2213
7979.00,0.2214
7978.00,0.2214
7977.00,0.2213
7976.00,0.2213
7975.00,0.2213
7974.00,0.2213
7973.00,0.2213
7972.00,0.2213
7971.00,0.2212
7970.00,0.2211
7969.00,0.2211
7968.00,0.2211
7967.00,0.2211
7966.00,0.2211
7965.00,0.2211
7964.00,0.2211
7963.00,0.2211
7962.00,0.2211
7961.00,0.2211
7960.00,0.2211
7959.00,0.2210
7958.00,0.2210
7957.00,0.2210
7956.00,0.2210
7955.00,0.2210
7954.00,0.2209
7953.00,0.2209
7952.00,0.2208
7951.00,0.2209
7950.00,0.2209
7949.00,0.2208
7948.00,0.2207
7947.00,0.2207
7946.00,0.2207
7945.00,0.2207
7944.00,0.2207
7943.00,0.2207
7942.00,0.2206
7941.00,0.2206
7940.00,0.2205
7939.00,0.2204
7938.00,0.2204
7937.00,0.2204
7936.00,0.2204
7935.00,0.2203
7934.00,0.2203
7933.00,0.2203
7932.00,0.2204
7931.00,0.2204
7930.00,0.2205
7929.00,0.2204
7928.00,0.2204
7927.00,0.2204
7926.00,0.2203
7925.00,0.2203
7924.00,0.2202
7923.00,0.2202
7922.00,0.2201
7921.00,0.2201
7920.00,0.2200
7919.00,0.2200
7918.00,0.2201
7917.00,0.2201
7916.00,0.2202
7915.00,0.2202
7914.00,0.2201
7913.00,0.2202
7912.00,0.2202
7911.00,0.2201
7910.00,0.2200
7909.00,0.2200
7908.00,0.2199
7907.00,0.2199
7906.00,0.2199
7905.00,0.2199
7904.00,0.2199
7903.00,0.2198
7902.00,0.2198
7901.00,0.2198
7900.00,0.2198
7899.00,0.2198
7898.00,0.2197
7897.00,0.2196
7896.00,0.2196
7895.00,0.2196
7894.00,0.2196
7893.00,0.2196
7892.00,0.2195
7891.00,0.2194
7890.00,0.2194
7889.00,0.2194
7888.00,0.2194
7887.00,0.2195
7886.00,0.2194
7885.00,0.2194
7884.00,0.2194
7883.00,0.2194
7882.00,0.2194
7881.00,0.2193
7880.00,0.2193
7879.00,0.2192
7878.00,0.2191
7877.00,0.2191
7876.00,0.2190
7875.00,0.2190
7874.00,0.2190
7873.00,0.2191
7872.00,0.2191
7871.00,0.2191
7870.00,0.2191
7869.00,0.2191
7868.00,0.2190
7867.00,0.2190
7866.00,0.2190
7865.00,0.2190
7864.00,0.2190
7863.00,0.2189
7862.00,0.2189
7861.00,0.2189
7860.00,0.2189
7859.00,0.2189
7858.00,0.2188
7857.00,0.2188
7856.00,0.2187
7855.00,0.2186
7854.00,0.2186
7853.00,0.2186
7852.00,0.2185
7851.00,0.2185
7850.00,0.2184
7849.00,0.2183
7848.00,0.2184
7847.00,0.2184
7846.00,0.2185
7845.00,0.2185
7844.00,0.2184
7843.00,0.2184
7842.00,0.2184
7841.00,0.2183
7840.00,0.2183
7839.00,0.2182
7838.00,0.2181
7837.00,0.2180
7836.00,0.2180
7835.00,0.2180
7834.00,0.2180
7833.00,0.2180
7832.00,0.2181
7831.00,0.2181
7830.00,0.2181
7829.00,0.2180
7828.00,0.2179
7827.00,0.2178
7826.00,0.2178
7825.00,0.2177
7824.00,0.2176
7823.00,0.2175
7822.00,0.2175
7821.00,0.2176
7820.00,0.2176
7819.00,0.2176
7818.00,0.2176
7817.00,0.2176
7816.00,0.2176
7815.00,0.2176
7814.00,0.2176
7813.00,0.2175
7812.00,0.2175
7811.00,0.2174
7810.00,0.2174
7809.00,0.2173
7808.00,0.2173
7807.00,0.2172
7806.00,0.2171
7805.00,0.2170
7804.00,0.2169
7803.00,0.2168
7802.00,0.2167
7801.00,0.2167
7800.00,0.2168
7799.00,0.2168
7798.00,0.2169
7797.00,0.2169
7796.00,0.2169
7795.00,0.2169
7794.00,0.2169
7793.00,0.2168
7792.00,0.2168
7791.00,0.2166
7790.00,0.2165
7789.00,0.2165
7788.00,0.2164
7787.00,0.2163
7786.00,0.2163
7785.00,0.2163
7784.00,0.2162
7783.00,0.2162
7782.00,0.2163
7781.00,0.2162
7780.00,0.2162
7779.00,0.2161
7778.00,0.2161
7777.00,0.2161
7776.00,0.2160
7775.00,0.2160
7774.00,0.2159
7773.00,0.2159
7772.00,0.2159
7771.00,0.2159
7770.00,0.2159
7769.00,0.2159
7768.00,0.2159
7767.00,0.2158
7766.00,0.2158
7765.00,0.2157
7764.00,0.2157
7763.00,0.2156
7762.00,0.2156
7761.00,0.2156
7760.00,0.2156
7759.00,0.2155
7758.00,0.2155
7757.00,0.2155
7756.00,0.2155
7755.00,0.2154
7754.00,0.2154
7753.00,0.2153
7752.00,0.2152
7751.00,0.2152
7750.00,0.2152
7749.00,0.2151
7748.00,0.2151
7747.00,0.2150
7746.00,0.2150
7745.00,0.2149
7744.00,0.2149
7743.00,0.2149
7742.00,0.2149
7741.00,0.2149
7740.00,0.2149
7739.00,0.2148
7738.00,0.2148
7737.00,0.2148
7736.00,0.2149
7735.00,0.2148
7734.00,0.2148
7733.00,0.2147
7732.00,0.2147
7731.00,0.2146
7730.00,0.2145
7729.00,0.2145
7728.00,0.2144
7727.00,0.2143
7726.00,0.2142
7725.00,0.2142
7724.00,0.2142
7723.00,0.2142
7722.00,0.2142
7721.00,0.2142
7720.00,0.2143
7719.00,0.2143
7718.00,0.2142
7717.00,0.2142
7716.00,0.2141
7715.00,0.2142
7714.00,0.2142
7713.00,0.2141
7712.00,0.2141
7711.00,0.2141
7710.00,0.2141
7709.00,0.2141
7708.00,0.2141
7707.00,0.2141
7706.00,0.2141
7705.00,0.2140
7704.00,0.2140
7703.00,0.2140
7702.00,0.2139
7701.00,0.2139
7700.00,0.2139
7699.00,0.2139
7698.00,0.2138
7697.00,0.2139
7696.00,0.2139
7695.00,0.2139
7694.00,0.2139
7693.00,0.2139
7692.00,0.2138
7691.00,0.2137
7690.00,0.2136
7689.00,0.2136
7688.00,0.2135
7687.00,0.2135
7686.00,0.2135
7685.00,0.2135
7684.00,0.2135
7683.00,0.2136
7682.00,0.2135
7681.00,0.2135
7680.00,0.2135
7679.00,0.2134
7678.00,0.2133
7677.00,0.2133
7676.00,0.2133
7675.00,0.2133
7674.00,0.2133
7673.00,0.2134
7672.00,0.2134
7671.00,0.2133
7670.00,0.2133
7669.00,0.2132
7668.00,0.2132
7667.00,0.2131
7666.00,0.2131
7665.00,0.2131
7664.00,0.2131
7663.00,0.2130
7662.00,0.2130
7661.00,0.2130
7660.00,0.2130
7659.00,0.2131
7658.00,0.2131
7657.00,0.2131
7656.00,0.2131
7655.00,0.2131
7654.00,0.2131
7653.00,0.2131
7652.00,0.2131
7651.00,0.2130
7650.00,0.2130
7649.00,0.2130
7648.00,0.2130
7647.00,0.2130
7646.00,0.2130
7645.00,0.2130
7644.00,0.2130
7643.00,0.2130
7642.00,0.2130
7641.00,0.2130
7640.00,0.2129
7639.00,0.2128
7638.00,0.2128
7637.00,0.2127
7636.00,0.2127
7635.00,0.2127
7634.00,0.2127
7633.00,0.2127
7632.00,0.2127
7631.00,0.2128
7630.00,0.2128
7629.00,0.2128
7628.00,0.2128
7627.00,0.2128
7626.00,0.2129
7625.00,0.2129
7624.00,0.2129
7623.00,0.2128
7622.00,0.2128
7621.00,0.2128
7620.00,0.2128
7619.00,0.2128
7618.00,0.2128
7617.00,0.2128
7616.00,0.2128
7615.00,0.2128
7614.00,0.2129
7613.00,0.2129
7612.00,0.2129
7611.00,0.2129
7610.00,0.2129
7609.00,0.2128
7608.00,0.2128
7607.00,0.2127
7606.00,0.2127
7605.00,0.2127
7604.00,0.2127
7603.00,0.2128
7602.00,0.2128
7601.00,0.2130
7600.00,0.2131
7599.00,0.2132
7598.00,0.2132
7597.00,0.2132
7596.00,0.2132
7595.00,0.2131
7594.00,0.2131
7593.00,0.2131
7592.00,0.2131
7591.00,0.2131
7590.00,0.2131
7589.00,0.2132
7588.00,0.2132
7587.00,0.2133
7586.00,0.2133
7585.00,0.2133
7584.00,0.2133
7583.00,0.2133
7582.00,0.2133
7581.00,0.2132
7580.00,0.2132
7579.00,0.2133
7578.00,0.2133
7577.00,0.2133
7576.00,0.2133
7575.00,0.2133
7574.00,0.2133
7573.00,0.2133
7572.00,0.2134
7571.00,0.2134
7570.00,0.2135
7569.00,0.2135
7568.00,0.2136
7567.00,0.2137
7566.00,0.2137
7565.00,0.2137
7564.00,0.2137
7563.00,0.2136
7562.00,0.2136
7561.00,0.2136
7560.00,0.2136
7559.00,0.2137
7558.00,0.2137
7557.00,0.2138
7556.00,0.2138
7555.00,0.2138
7554.00,0.2139
7553.00,0.2139
7552.00,0.2139
7551.00,0.2140
7550.00,0.2141
7549.00,0.2141
7548.00,0.2142
7547.00,0.2142
7546.00,0.2143
7545.00,0.2143
7544.00,0.2143
7543.00,0.2143
7542.00,0.2143
7541.00,0.2143
7540.00,0.2144
7539.00,0.2145
7538.00,0.2146
7537.00,0.2146
7536.00,0.2147
7535.00,0.2148
7534.00,0.2148
7533.00,0.2148
7532.00,0.2149
7531.00,0.2149
7530.00,0.2149
7529.00,0.2150
7528.00,0.2151
7527.00,0.2152
7526.00,0.2152
7525.00,0.2153
7524.00,0.2154
7523.00,0.2155
7522.00,0.2156
7521.00,0.2156
7520.00,0.2157
7519.00,0.2157
7518.00,0.2158
7517.00,0.2158
7516.00,0.2159
7515.00,0.2160
7514.00,0.2161
7513.00,0.2161
7512.00,0.2162
7511.00,0.2162
7510.00,0.2163
7509.00,0.2164
7508.00,0.2164
7507.00,0.2165
7506.00,0.2165
7505.00,0.2166
7504.00,0.2166
7503.00,0.2167
7502.00,0.2168
7501.00,0.2169
7500.00,0.2171
7499.00,0.2171
7498.00,0.2172
7497.00,0.2173
7496.00,0.2173
7495.00,0.2174
7494.00,0.2174
7493.00,0.2175
7492.00,0.2175
7491.00,0.2176
7490.00,0.2176
7489.00,0.2178
7488.00,0.2179
7487.00,0.2180
7486.00,0.2182
7485.00,0.2183
7484.00,0.2184
7483.00,0.2186
7482.00,0.2187
7481.00,0.2188
7480.00,0.2188
7479.00,0.2189
7478.00,0.2189
7477.00,0.2189
7476.00,0.2189
7475.00,0.2190
7474.00,0.2191
7473.00,0.2192
7472.00,0.2194
7471.00,0.2195
7470.00,0.2196
7469.00,0.2197
7468.00,0.2198
7467.00,0.2199
7466.00,0.2200
7465.00,0.2201
7464.00,0.2201
7463.00,0.2202
7462.00,0.2203
7461.00,0.2204
7460.00,0.2205
7459.00,0.2206
7458.00,0.2207
7457.00,0.2208
7456.00,0.2209
7455.00,0.2210
7454.00,0.2212
7453.00,0.2213
7452.00,0.2214
7451.00,0.2216
7450.00,0.2216
7449.00,0.2217
7448.00,0.2218
7447.00,0.2219
7446.00,0.2220
7445.00,0.2221
7444.00,0.2222
7443.00,0.2224
7442.00,0.2225
7441.00,0.2226
7440.00,0.2228
7439.00,0.2229
7438.00,0.2230
7437.00,0.2232
7436.00,0.2233
7435.00,0.2234
7434.00,0.2235
7433.00,0.2236
7432.00,0.2237
7431.00,0.2239
7430.00,0.2240
7429.00,0.2242
7428.00,0.2243
7427.00,0.2244
7426.00,0.2246
7425.00,0.2248
7424.00,0.2251
7423.00,0.2253
7422.00,0.2254
7421.00,0.2256
7420.00,0.2257
7419.00,0.2259
7418.00,0.2260
7417.00,0.2260
7416.00,0.2259
7415.00,0.2259
7414.00,0.2260
7413.00,0.2262
7412.00,0.2264
7411.00,0.2267
7410.00,0.2270
7409.00,0.2273
7408.00,0.2275
7407.00,0.2276
7406.00,0.2276
7405.00,0.2277
7404.00,0.2278
7403.00,0.2279
7402.00,0.2280
7401.00,0.2281
7400.00,0.2283
7399.00,0.2286
7398.00,0.2289
7397.00,0.2293
7396.00,0.2295
7395.00,0.2296
7394.00,0.2297
7393.00,0.2299
7392.00,0.2300
7391.00,0.2300
7390.00,0.2301
7389.00,0.2303
7388.00,0.2306
7387.00,0.2310
7386.00,0.2315
7385.00,0.2320
7384.00,0.2323
7383.00,0.2325
7382.00,0.2328
7381.00,0.2332
7380.00,0.2336
7379.00,0.2337
7378.00,0.2334
7377.00,0.2329
7376.00,0.2327
7375.00,0.2328
7374.00,0.2331
7373.00,0.2333
7372.00,0.2333
7371.00,0.2333
7370.00,0.2335
7369.00,0.2338
7368.00,0.2341
7367.00,0.2343
7366.00,0.2343
7365.00,0.2342
7364.00,0.2340
7363.00,0.2340
7362.00,0.2342
7361.00,0.2348
7360.00,0.2355
7359.00,0.2360
7358.00,0.2361
7357.00,0.2360
7356.00,0.2359
7355.00,0.2361
7354.00,0.2364
7353.00,0.2367
7352.00,0.2368
7351.00,0.2369
7350.00,0.2372
7349.00,0.2378
7348.00,0.2385
7347.00,0.2392
7346.00,0.2397
7345.00,0.2401
7344.00,0.2403
7343.00,0.2403
7342.00,0.2399
7341.00,0.2392
7340.00,0.2385
7339.00,0.2379
7338.00,0.2372
7337.00,0.2366
7336.00,0.2364
7335.00,0.2366
7334.00,0.2374
7333.00,0.2385
7332.00,0.2396
7331.00,0.2402
7330.00,0.2405
7329.00,0.2405
7328.00,0.2406
7327.00,0.2404
7326.00,0.2399
7325.00,0.2391
7324.00,0.2384
7323.00,0.2381
7322.00,0.2381
7321.00,0.2382
7320.00,0.2384
7319.00,0.2385
7318.00,0.2388
7317.00,0.2394
7316.00,0.2401
7315.00,0.2407
7314.00,0.2411
7313.00,0.2412
7312.00,0.2414
7311.00,0.2417
7310.00,0.2417
7309.00,0.2413
7308.00,0.2407
7307.00,0.2401
7306.00,0.2399
7305.00,0.2400
7304.00,0.2400
7303.00,0.2400
7302.00,0.2399
7301.00,0.2401
7300.00,0.2405
7299.00,0.2412
7298.00,0.2417
7297.00,0.2418
7296.00,0.2415
7295.00,0.2413
7294.00,0.2414
7293.00,0.2416
7292.00,0.2417
7291.00,0.2415
7290.00,0.2411
7289.00,0.2408
7288.00,0.2407
7287.00,0.2408
7286.00,0.2408
7285.00,0.2407
7284.00,0.2405
7283.00,0.2404
7282.00,0.2404
7281.00,0.2406
7280.00,0.2408
7279.00,0.2409
7278.00,0.2411
7277.00,0.2411
7276.00,0.2412
7275.00,0.2412
7274.00,0.2411
7273.00,0.2412
7272.00,0.2412
7271.00,0.2412
7270.00,0.2410
7269.00,0.2410
7268.00,0.2412
7267.00,0.2416
7266.00,0.2419
7265.00,0.2420
7264.00,0.2419
7263.00,0.2418
7262.00,0.2418
7261.00,0.2418
7260.00,0.2418
7259.00,0.2419
7258.00,0.2422
7257.00,0.2426
7256.00,0.2429
7255.00,0.2430
7254.00,0.2430
7253.00,0.2429
7252.00,0.2428
7251.00,0.2426
7250.00,0.2426
7249.00,0.2430
7248.00,0.2440
7247.00,0.2452
7246.00,0.2462
7245.00,0.2467
7244.00,0.2465
7243.00,0.2461
7242.00,0.2455
7241.00,0.2448
7240.00,0.2442
7239.00,0.2441
7238.00,0.2447
7237.00,0.2460
7236.00,0.2475
7235.00,0.2485
7234.00,0.2487
7233.00,0.2484
7232.00,0.2480
7231.00,0.2475
7230.00,0.2467
7229.00,0.2458
7228.00,0.2449
7227.00,0.2447
7226.00,0.2451
7225.00,0.2459
7224.00,0.2465
7223.00,0.2468
7222.00,0.2467
7221.00,0.2467
7220.00,0.2468
7219.00,0.2470
7218.00,0.2469
7217.00,0.2466
7216.00,0.2463
7215.00,0.2460
7214.00,0.2459
7213.00,0.2460
7212.00,0.2461
7211.00,0.2465
7210.00,0.2470
7209.00,0.2477
7208.00,0.2484
7207.00,0.2490
7206.00,0.2492
7205.00,0.2492
7204.00,0.2491
7203.00,0.2488
7202.00,0.2484
7201.00,0.2480
7200.00,0.2478
7199.00,0.2479
7198.00,0.2482
7197.00,0.2485
7196.00,0.2488
7195.00,0.2490
7194.00,0.2491
7193.00,0.2492
7192.00,0.2493
7191.00,0.2494
7190.00,0.2497
7189.00,0.2501
7188.00,0.2507
7187.00,0.2515
7186.00,0.2524
7185.00,0.2531
7184.00,0.2534
7183.00,0.2534
7182.00,0.2532
7181.00,0.2530
7180.00,0.2527
7179.00,0.2523
7178.00,0.2519
7177.00,0.2518
7176.00,0.2521
7175.00,0.2527
7174.00,0.2536
7173.00,0.2546
7172.00,0.2553
7171.00,0.2559
7170.00,0.2564
7169.00,0.2567
7168.00,0.2570
7167.00,0.2572
7166.00,0.2575
7165.00,0.2578
7164.00,0.2578
7163.00,0.2577
7162.00,0.2576
7161.00,0.2576
7160.00,0.2575
7159.00,0.2573
7158.00,0.2570
7157.00,0.2568
7156.00,0.2568
7155.00,0.2571
7154.00,0.2574
7153.00,0.2578
7152.00,0.2582
7151.00,0.2587
7150.00,0.2593
7149.00,0.2599
7148.00,0.2605
7147.00,0.2611
7146.00,0.2618
7145.00,0.2625
7144.00,0.2633
7143.00,0.2639
7142.00,0.2642
7141.00,0.2642
7140.00,0.2643
7139.00,0.2644
7138.00,0.2644
7137.00,0.2642
7136.00,0.2638
7135.00,0.2636
7134.00,0.2636
7133.00,0.2638
7132.00,0.2640
7131.00,0.2643
7130.00,0.2645
7129.00,0.2648
7128.00,0.2652
7127.00,0.2657
7126.00,0.2662
7125.00,0.2667
7124.00,0.2674
7123.00,0.2684
7122.00,0.2695
7121.00,0.2705
7120.00,0.2710
7119.00,0.2711
7118.00,0.2710
7117.00,0.2709
7116.00,0.2707
7115.00,0.2705
7114.00,0.2703
7113.00,0.2705
7112.00,0.2711
7111.00,0.2721
7110.00,0.2732
7109.00,0.2740
7108.00,0.2744
7107.00,0.2746
7106.00,0.2746
7105.00,0.2746
7104.00,0.2747
7103.00,0.2748
7102.00,0.2752
7101.00,0.2758
7100.00,0.2768
7099.00,0.2778
7098.00,0.2787
7097.00,0.2792
7096.00,0.2794
7095.00,0.2795
7094.00,0.2796
7093.00,0.2795
7092.00,0.2795
7091.00,0.2796
7090.00,0.2799
7089.00,0.2804
7088.00,0.2809
7087.00,0.2815
7086.00,0.2820
7085.00,0.2825
7084.00,0.2830
7083.00,0.2834
7082.00,0.2838
7081.00,0.2842
7080.00,0.2846
7079.00,0.2852
7078.00,0.2858
7077.00,0.2864
7076.00,0.2873
7075.00,0.2881
7074.00,0.2890
7073.00,0.2897
7072.00,0.2903
7071.00,0.2908
7070.00,0.2911
7069.00,0.2912
7068.00,0.2913
7067.00,0.2915
7066.00,0.2917
7065.00,0.2921
7064.00,0.2925
7063.00,0.2930
7062.00,0.2935
7061.00,0.2941
7060.00,0.2948
7059.00,0.2954
7058.00,0.2961
7057.00,0.2967
7056.00,0.2972
7055.00,0.2977
7054.00,0.2983
7053.00,0.2989
7052.00,0.2996
7051.00,0.3002
7050.00,0.3009
7049.00,0.3015
7048.00,0.3021
7047.00,0.3027
7046.00,0.3031
7045.00,0.3035
7044.00,0.3038
7043.00,0.3042
7042.00,0.3046
7041.00,0.3051
7040.00,0.3057
7039.00,0.3062
7038.00,0.3068
7037.00,0.3073
7036.00,0.3078
7035.00,0.3084
7034.00,0.3089
7033.00,0.3095
7032.00,0.3101
7031.00,0.3106
7030.00,0.3112
7029.00,0.3118
7028.00,0.3125
7027.00,0.3132
7026.00,0.3138
7025.00,0.3143
7024.00,0.3147
7023.00,0.3151
7022.00,0.3155
7021.00,0.3160
7020.00,0.3164
7019.00,0.3169
7018.00,0.3174
7017.00,0.3180
7016.00,0.3186
7015.00,0.3192
7014.00,0.3197
7013.00,0.3201
7012.00,0.3206
7011.00,0.3211
7010.00,0.3216
7009.00,0.3222
7008.00,0.3227
7007.00,0.3233
7006.00,0.3239
7005.00,0.3245
7004.00,0.3250
7003.00,0.3255
7002.00,0.3260
7001.00,0.3265
7000.00,0.3269
6999.00,0.3273
6998.00,0.3278
6997.00,0.3282
6996.00,0.3286
6995.00,0.3290
6994.00,0.3294
6993.00,0.3299
6992.00,0.3305
6991.00,0.3310
6990.00,0.3315
6989.00,0.3320
6988.00,0.3325
6987.00,0.3330
6986.00,0.3335
6985.00,0.3340
6984.00,0.3344
6983.00,0.3348
6982.00,0.3351
6981.00,0.3355
6980.00,0.3359
6979.00,0.3363
6978.00,0.3366
6977.00,0.3370
6976.00,0.3375
6975.00,0.3380
6974.00,0.3384
6973.00,0.3388
6972.00,0.3392
6971.00,0.3395
6970.00,0.3398
6969.00,0.3401
6968.00,0.3405
6967.00,0.3408
6966.00,0.3412
6965.00,0.3415
6964.00,0.3419
6963.00,0.3423
6962.00,0.3427
6961.00,0.3431
6960.00,0.3436
6959.00,0.3440
6958.00,0.3444
6957.00,0.3448
6956.00,0.3450
6955.00,0.3453
6954.00,0.3455
6953.00,0.3458
6952.00,0.3461
6951.00,0.3465
6950.00,0.3468
6949.00,0.3472
6948.00,0.3475
6947.00,0.3478
6946.00,0.3481
6945.00,0.3483
6944.00,0.3485
6943.00,0.3487
6942.00,0.3490
6941.00,0.3494
6940.00,0.3497
6939.00,0.3500
6938.00,0.3503
6937.00,0.3506
6936.00,0.3508
6935.00,0.3511
6934.00,0.3513
6933.00,0.3516
6932.00,0.3518
6931.00,0.3520
6930.00,0.3523
6929.00,0.3525
6928.00,0.3527
6927.00,0.3528
6926.00,0.3530
6925.00,0.3532
6924.00,0.3535
6923.00,0.3538
6922.00,0.3542
6921.00,0.3546
6920.00,0.3549
6919.00,0.3551
6918.00,0.3553
6917.00,0.3554
6916.00,0.3554
6915.00,0.3555
6914.00,0.3555
6913.00,0.3556
6912.00,0.3557
6911.00,0.3559
6910.00,0.3561
6909.00,0.3563
6908.00,0.3564
6907.00,0.3565
6906.00,0.3567
6905.00,0.3568
6904.00,0.3571
6903.00,0.3573
6902.00,0.3575
6901.00,0.3577
6900.00,0.3579
6899.00,0.3581
6898.00,0.3583
6897.00,0.3586
6896.00,0.3588
6895.00,0.3589
6894.00,0.3591
6893.00,0.3592
6892.00,0.3593
6891.00,0.3594
6890.00,0.3594
6889.00,0.3595
6888.00,0.3596
6887.00,0.3597
6886.00,0.3598
6885.00,0.3598
6884.00,0.3599
6883.00,0.3599
6882.00,0.3600
6881.00,0.3601
6880.00,0.3602
6879.00,0.3603
6878.00,0.3605
6877.00,0.3607
6876.00,0.3609
6875.00,0.3610
6874.00,0.3611
6873.00,0.3612
6872.00,0.3613
6871.00,0.3614
6870.00,0.3615
6869.00,0.3615
6868.00,0.3616
6867.00,0.3617
6866.00,0.3618
6865.00,0.3620
6864.00,0.3621
6863.00,0.3622
6862.00,0.3622
6861.00,0.3624
6860.00,0.3625
6859.00,0.3625
6858.00,0.3626
6857.00,0.3626
6856.00,0.3627
6855.00,0.3628
6854.00,0.3628
6853.00,0.3629
6852.00,0.3630
6851.00,0.3631
6850.00,0.3632
6849.00,0.3633
6848.00,0.3634
6847.00,0.3635
6846.00,0.3636
6845.00,0.3637
6844.00,0.3637
6843.00,0.3638
6842.00,0.3639
6841.00,0.3640
6840.00,0.3641
6839.00,0.3642
6838.00,0.3643
6837.00,0.3644
6836.00,0.3644
6835.00,0.3644
6834.00,0.3644
6833.00,0.3644
6832.00,0.3644
6831.00,0.3644
6830.00,0.3644
6829.00,0.3645
6828.00,0.3646
6827.00,0.3647
6826.00,0.3647
6825.00,0.3648
6824.00,0.3648
6823.00,0.3649
6822.00,0.3650
6821.00,0.3651
6820.00,0.3652
6819.00,0.3652
6818.00,0.3653
6817.00,0.3653
6816.00,0.3653
6815.00,0.3652
6814.00,0.3651
6813.00,0.3651
6812.00,0.3651
6811.00,0.3651
6810.00,0.3652
6809.00,0.3653
6808.00,0.3655
6807.00,0.3655
6806.00,0.3656
6805.00,0.3656
6804.00,0.3656
6803.00,0.3656
6802.00,0.3656
6801.00,0.3656
6800.00,0.3655
6799.00,0.3656
6798.00,0.3656
6797.00,0.3657
6796.00,0.3657
6795.00,0.3657
6794.00,0.3657
6793.00,0.3657
6792.00,0.3657
6791.00,0.3657
6790.00,0.3657
6789.00,0.3656
6788.00,0.3656
6787.00,0.3655
6786.00,0.3654
6785.00,0.3654
6784.00,0.3654
6783.00,0.3654
6782.00,0.3654
6781.00,0.3654
6780.00,0.3654
6779.00,0.3654
6778.00,0.3654
6777.00,0.3653
6776.00,0.3653
6775.00,0.3653
6774.00,0.3653
6773.00,0.3653
6772.00,0.3653
6771.00,0.3653
6770.00,0.3653
6769.00,0.3653
6768.00,0.3652
6767.00,0.3651
6766.00,0.3651
6765.00,0.3650
6764.00,0.3649
6763.00,0.3649
6762.00,0.3649
6761.00,0.3649
6760.00,0.3649
6759.00,0.3648
6758.00,0.3648
6757.00,0.3647
6756.00,0.3647
6755.00,0.3646
6754.00,0.3646
6753.00,0.3646
6752.00,0.3646
6751.00,0.3646
6750.00,0.3645
6749.00,0.3645
6748.00,0.3644
6747.00,0.3644
6746.00,0.3643
6745.00,0.3642
6744.00,0.3641
6743.00,0.3641
6742.00,0.3640
6741.00,0.3640
6740.00,0.3640
6739.00,0.3640
6738.00,0.3640
6737.00,0.3640
6736.00,0.3639
6735.00,0.3639
6734.00,0.3639
6733.00,0.3638
6732.00,0.3638
6731.00,0.3638
6730.00,0.3638
6729.00,0.3638
6728.00,0.3637
6727.00,0.3636
6726.00,0.3635
6725.00,0.3634
6724.00,0.3633
6723.00,0.3632
6722.00,0.3632
6721.00,0.3631
6720.00,0.3631
6719.00,0.3631
6718.00,0.3631
6717.00,0.3630
6716.00,0.3630
6715.00,0.3629
6714.00,0.3628
6713.00,0.3627
6712.00,0.3625
6711.00,0.3624
6710.00,0.3624
6709.00,0.3623
6708.00,0.3623
6707.00,0.3622
6706.00,0.3621
6705.00,0.3620
6704.00,0.3620
6703.00,0.3619
6702.00,0.3617
6701.00,0.3616
6700.00,0.3615
6699.00,0.3614
6698.00,0.3614
6697.00,0.3613
6696.00,0.3612
6695.00,0.3612
6694.00,0.3611
6693.00,0.3611
6692.00,0.3611
6691.00,0.3610
6690.00,0.3609
6689.00,0.3608
6688.00,0.3608
6687.00,0.3607
6686.00,0.3607
6685.00,0.3606
6684.00,0.3605
6683.00,0.3604
6682.00,0.3603
6681.00,0.3603
6680.00,0.3602
6679.00,0.3600
6678.00,0.3600
6677.00,0.3599
6676.00,0.3598
6675.00,0.3598
6674.00,0.3597
6673.00,0.3597
6672.00,0.3596
6671.00,0.3595
6670.00,0.3594
6669.00,0.3593
6668.00,0.3592
6667.00,0.3591
6666.00,0.3590
6665.00,0.3588
6664.00,0.3587
6663.00,0.3586
6662.00,0.3585
6661.00,0.3585
6660.00,0.3584
6659.00,0.3584
6658.00,0.3583
6657.00,0.3582
6656.00,0.3581
6655.00,0.3580
6654.00,0.3579
6653.00,0.3578
6652.00,0.3577
6651.00,0.3576
6650.00,0.3575
6649.00,0.3574
6648.00,0.3574
6647.00,0.3573
6646.00,0.3572
6645.00,0.3572
6644.00,0.3571
6643.00,0.3570
6642.00,0.3570
6641.00,0.3570
6640.00,0.3569
6639.00,0.3568
6638.00,0.3567
6637.00,0.3566
6636.00,0.3565
6635.00,0.3564
6634.00,0.3563
6633.00,0.3562
6632.00,0.3561
6631.00,0.3561
6630.00,0.3560
6629.00,0.3560
6628.00,0.3559
6627.00,0.3557
6626.00,0.3556
6625.00,0.3556
6624.00,0.3555
6623.00,0.3554
6622.00,0.3553
6621.00,0.3552
6620.00,0.3552
6619.00,0.3551
6618.00,0.3549
6617.00,0.3548
6616.00,0.3547
6615.00,0.3545
6614.00,0.3544
6613.00,0.3543
6612.00,0.3542
6611.00,0.3541
6610.00,0.3540
6609.00,0.3539
6608.00,0.3538
6607.00,0.3537
6606.00,0.3537
6605.00,0.3536
6604.00,0.3535
6603.00,0.3535
6602.00,0.3534
6601.00,0.3533
6600.00,0.3532
6599.00,0.3531
6598.00,0.3531
6597.00,0.3530
6596.00,0.3529
6595.00,0.3528
6594.00,0.3527
6593.00,0.3526
6592.00,0.3526
6591.00,0.3525
6590.00,0.3524
6589.00,0.3524
6588.00,0.3522
6587.00,0.3521
6586.00,0.3520
6585.00,0.3520
6584.00,0.3519
6583.00,0.3519
6582.00,0.3518
6581.00,0.3518
6580.00,0.3518
6579.00,0.3517
6578.00,0.3516
6577.00,0.3515
6576.00,0.3514
6575.00,0.3513
6574.00,0.3512
6573.00,0.3511
6572.00,0.3510
6571.00,0.3509
6570.00,0.3508
6569.00,0.3507
6568.00,0.3506
6567.00,0.3505
6566.00,0.3505
6565.00,0.3504
6564.00,0.3503
6563.00,0.3502
6562.00,0.3501
6561.00,0.3501
6560.00,0.3500
6559.00,0.3500
6558.00,0.3500
6557.00,0.3500
6556.00,0.3499
6555.00,0.3498
6554.00,0.3497
6553.00,0.3496
6552.00,0.3495
6551.00,0.3494
6550.00,0.3493
6549.00,0.3493
6548.00,0.3493
6547.00,0.3494
6546.00,0.3493
6545.00,0.3493
6544.00,0.3493
6543.00,0.3492
6542.00,0.3491
6541.00,0.3490
6540.00,0.3490
6539.00,0.3489
6538.00,0.3489
6537.00,0.3489
6536.00,0.3489
6535.00,0.3489
6534.00,0.3488
6533.00,0.3488
6532.00,0.3487
6531.00,0.3487
6530.00,0.3486
6529.00,0.3486
6528.00,0.3485
6527.00,0.3485
6526.00,0.3485
6525.00,0.3484
6524.00,0.3484
6523.00,0.3484
6522.00,0.3483
6521.00,0.3483
6520.00,0.3482
6519.00,0.3482
6518.00,0.3482
6517.00,0.3481
6516.00,0.3481
6515.00,0.3481
6514.00,0.3480
6513.00,0.3480
6512.00,0.3480
6511.00,0.3480
6510.00,0.3480
6509.00,0.3479
6508.00,0.3479
6507.00,0.3479
6506.00,0.3479
6505.00,0.3479
6504.00,0.3479
6503.00,0.3479
6502.00,0.3478
6501.00,0.3478
6500.00,0.3477
6499.00,0.3477
6498.00,0.3477
6497.00,0.3476
6496.00,0.3476
6495.00,0.3476
6494.00,0.3477
6493.00,0.3477
6492.00,0.3477
6491.00,0.3477
6490.00,0.3476
6489.00,0.3476
6488.00,0.3477
6487.00,0.3477
6486.00,0.3477
6485.00,0.3477
6484.00,0.3477
6483.00,0.3477
6482.00,0.3477
6481.00,0.3477
6480.00,0.3477
6479.00,0.3477
6478.00,0.3476
6477.00,0.3476
6476.00,0.3477
6475.00,0.3477
6474.00,0.3477
6473.00,0.3478
6472.00,0.3478
6471.00,0.3478
6470.00,0.3478
6469.00,0.3478
6468.00,0.3477
6467.00,0.3477
6466.00,0.3476
6465.00,0.3477
6464.00,0.3477
6463.00,0.3477
6462.00,0.3477
6461.00,0.3477
6460.00,0.3477
6459.00,0.3477
6458.00,0.3477
6457.00,0.3477
6456.00,0.3478
6455.00,0.3478
6454.00,0.3478
6453.00,0.3478
6452.00,0.3478
6451.00,0.3478
6450.00,0.3478
6449.00,0.3478
6448.00,0.3478
6447.00,0.3478
6446.00,0.3478
6445.00,0.3479
6444.00,0.3479
6443.00,0.3479
6442.00,0.3479
6441.00,0.3479
6440.00,0.3479
6439.00,0.3480
6438.00,0.3480
6437.00,0.3480
6436.00,0.3480
6435.00,0.3480
6434.00,0.3480
6433.00,0.3481
6432.00,0.3481
6431.00,0.3482
6430.00,0.3482
6429.00,0.3482
6428.00,0.3483
6427.00,0.3483
6426.00,0.3483
6425.00,0.3483
6424.00,0.3483
6423.00,0.3483
6422.00,0.3483
6421.00,0.3483
6420.00,0.3483
6419.00,0.3483
6418.00,0.3483
6417.00,0.3484
6416.00,0.3484
6415.00,0.3484
6414.00,0.3484
6413.00,0.3484
6412.00,0.3484
6411.00,0.3485
6410.00,0.3485
6409.00,0.3486
6408.00,0.3486
6407.00,0.3486
6406.00,0.3486
6405.00,0.3487
6404.00,0.3487
6403.00,0.3487
6402.00,0.3488
6401.00,0.3488
6400.00,0.3488
6399.00,0.3488
6398.00,0.3488
6397.00,0.3488
6396.00,0.3487
6395.00,0.3487
6394.00,0.3487
6393.00,0.3487
6392.00,0.3487
6391.00,0.3487
6390.00,0.3487
6389.00,0.3488
6388.00,0.3488
6387.00,0.3488
6386.00,0.3488
6385.00,0.3489
6384.00,0.3489
6383.00,0.3489
6382.00,0.3489
6381.00,0.3489
6380.00,0.3488
6379.00,0.3488
6378.00,0.3488
6377.00,0.3488
6376.00,0.3488
6375.00,0.3488
6374.00,0.3488
6373.00,0.3488
6372.00,0.3488
6371.00,0.3488
6370.00,0.3489
6369.00,0.3489
6368.00,0.3489
6367.00,0.3490
6366.00,0.3490
6365.00,0.3490
6364.00,0.3490
6363.00,0.3489
6362.00,0.3489
6361.00,0.3489
6360.00,0.3489
6359.00,0.3489
6358.00,0.3490
6357.00,0.3490
6356.00,0.3490
6355.00,0.3490
6354.00,0.3489
6353.00,0.3489
6352.00,0.3488
6351.00,0.3488
6350.00,0.3488
6349.00,0.3488
6348.00,0.3488
6347.00,0.3488
6346.00,0.3488
6345.00,0.3488
6344.00,0.3488
6343.00,0.3487
6342.00,0.3487
6341.00,0.3487
6340.00,0.3487
6339.00,0.3487
6338.00,0.3486
6337.00,0.3486
6336.00,0.3486
6335.00,0.3485
6334.00,0.3485
6333.00,0.3484
6332.00,0.3484
6331.00,0.3484
6330.00,0.3484
6329.00,0.3484
6328.00,0.3483
6327.00,0.3483
6326.00,0.3483
6325.00,0.3482
6324.00,0.3482
6323.00,0.3481
6322.00,0.3481
6321.00,0.3480
6320.00,0.3480
6319.00,0.3479
6318.00,0.3478
6317.00,0.3478
6316.00,0.3478
6315.00,0.3477
6314.00,0.3477
6313.00,0.3477
6312.00,0.3476
6311.00,0.3476
6310.00,0.3476
6309.00,0.3476
6308.00,0.3475
6307.00,0.3475
6306.00,0.3474
6305.00,0.3474
6304.00,0.3473
6303.00,0.3473
6302.00,0.3472
6301.00,0.3471
6300.00,0.3470
6299.00,0.3470
6298.00,0.3469
6297.00,0.3468
6296.00,0.3467
6295.00,0.3466
6294.00,0.3466
6293.00,0.3465
6292.00,0.3465
6291.00,0.3464
6290.00,0.3464
6289.00,0.3463
6288.00,0.3463
6287.00,0.3462
6286.00,0.3461
6285.00,0.3460
6284.00,0.3459
6283.00,0.3458
6282.00,0.3458
6281.00,0.3457
6280.00,0.3456
6279.00,0.3455
6278.00,0.3454
6277.00,0.3454
6276.00,0.3454
6275.00,0.3453
6274.00,0.3453
6273.00,0.3452
6272.00,0.3451
6271.00,0.3450
6270.00,0.3449
6269.00,0.3448
6268.00,0.3447
6267.00,0.3446
6266.00,0.3445
6265.00,0.3444
6264.00,0.3444
6263.00,0.3443
6262.00,0.3442
6261.00,0.3441
6260.00,0.3440
6259.00,0.3439
6258.00,0.3438
6257.00,0.3437
6256.00,0.3435
6255.00,0.3434
6254.00,0.3433
6253.00,0.3433
6252.00,0.3432
6251.00,0.3431
6250.00,0.3430
6249.00,0.3429
6248.00,0.3428
6247.00,0.3427
6246.00,0.3426
6245.00,0.3425
6244.00,0.3424
6243.00,0.3423
6242.00,0.3422
6241.00,0.3420
6240.00,0.3419
6239.00,0.3419
6238.00,0.3418
6237.00,0.3416
6236.00,0.3415
6235.00,0.3414
6234.00,0.3413
6233.00,0.3412
6232.00,0.3410
6231.00,0.3409
6230.00,0.3408
6229.00,0.3407
6228.00,0.3406
6227.00,0.3405
6226.00,0.3404
6225.00,0.3403
6224.00,0.3402
6223.00,0.3401
6222.00,0.3401
6221.00,0.3400
6220.00,0.3399
6219.00,0.3398
6218.00,0.3397
6217.00,0.3396
6216.00,0.3395
6215.00,0.3394
6214.00,0.3393
6213.00,0.3392
6212.00,0.3391
6211.00,0.3390
6210.00,0.3388
6209.00,0.3386
6208.00,0.3385
6207.00,0.3383
6206.00,0.3382
6205.00,0.3381
6204.00,0.3380
6203.00,0.3379
6202.00,0.3378
6201.00,0.3377
6200.00,0.3376
6199.00,0.3375
6198.00,0.3374
6197.00,0.3373
6196.00,0.3372
6195.00,0.3372
6194.00,0.3371
6193.00,0.3370
6192.00,0.3369
6191.00,0.3367
6190.00,0.3366
6189.00,0.3364
6188.00,0.3363
6187.00,0.3362
6186.00,0.3362
6185.00,0.3361
6184.00,0.3359
6183.00,0.3358
6182.00,0.3357
6181.00,0.3355
6180.00,0.3354
6179.00,0.3353
6178.00,0.3352
6177.00,0.3351
6176.00,0.3350
6175.00,0.3349
6174.00,0.3347
6173.00,0.3346
6172.00,0.3344
6171.00,0.3343
6170.00,0.3342
6169.00,0.3341
6168.00,0.3340
6167.00,0.3339
6166.00,0.3338
6165.00,0.3337
6164.00,0.3336
6163.00,0.3335
6162.00,0.3334
6161.00,0.3333
6160.00,0.3332
6159.00,0.3331
6158.00,0.3330
6157.00,0.3329
6156.00,0.3328
6155.00,0.3327
6154.00,0.3327
6153.00,0.3326
6152.00,0.3325
6151.00,0.3324
6150.00,0.3322
6149.00,0.3321
6148.00,0.3320
6147.00,0.3318
6146.00,0.3317
6145.00,0.3316
6144.00,0.3315
6143.00,0.3314
6142.00,0.3312
6141.00,0.3311
6140.00,0.3310
6139.00,0.3308
6138.00,0.3307
6137.00,0.3306
6136.00,0.3304
6135.00,0.3303
6134.00,0.3302
6133.00,0.3301
6132.00,0.3299
6131.00,0.3298
6130.00,0.3297
6129.00,0.3296
6128.00,0.3295
6127.00,0.3294
6126.00,0.3293
6125.00,0.3292
6124.00,0.3291
6123.00,0.3290
6122.00,0.3289
6121.00,0.3288
6120.00,0.3287
6119.00,0.3286
6118.00,0.3285
6117.00,0.3284
6116.00,0.3283
6115.00,0.3282
6114.00,0.3282
6113.00,0.3281
6112.00,0.3279
6111.00,0.3278
6110.00,0.3277
6109.00,0.3276
6108.00,0.3275
6107.00,0.3274
6106.00,0.3273
6105.00,0.3272
6104.00,0.3271
6103.00,0.3270
6102.00,0.3269
6101.00,0.3267
6100.00,0.3266
6099.00,0.3265
6098.00,0.3264
6097.00,0.3263
6096.00,0.3262
6095.00,0.3261
6094.00,0.3261
6093.00,0.3260
6092.00,0.3259
6091.00,0.3258
6090.00,0.3257
6089.00,0.3256
6088.00,0.3254
6087.00,0.3253
6086.00,0.3252
6085.00,0.3250
6084.00,0.3250
6083.00,0.3249
6082.00,0.3248
6081.00,0.3247
6080.00,0.3246
6079.00,0.3245
6078.00,0.3244
6077.00,0.3243
6076.00,0.3242
6075.00,0.3241
6074.00,0.3240
6073.00,0.3239
6072.00,0.3238
6071.00,0.3237
6070.00,0.3236
6069.00,0.3236
6068.00,0.3235
6067.00,0.3234
6066.00,0.3233
6065.00,0.3233
6064.00,0.3232
6063.00,0.3231
6062.00,0.3230
6061.00,0.3229
6060.00,0.3229
6059.00,0.3228
6058.00,0.3227
6057.00,0.3226
6056.00,0.3225
6055.00,0.3224
6054.00,0.3224
6053.00,0.3223
6052.00,0.3223
6051.00,0.3222
6050.00,0.3221
6049.00,0.3220
6048.00,0.3219
6047.00,0.3218
6046.00,0.3218
6045.00,0.3217
6044.00,0.3216
6043.00,0.3216
6042.00,0.3215
6041.00,0.3215
6040.00,0.3214
6039.00,0.3213
6038.00,0.3212
6037.00,0.3211
6036.00,0.3210
6035.00,0.3210
6034.00,0.3209
6033.00,0.3209
6032.00,0.3209
6031.00,0.3209
6030.00,0.3208
6029.00,0.3208
6028.00,0.3207
6027.00,0.3206
6026.00,0.3205
6025.00,0.3205
6024.00,0.3204
6023.00,0.3203
6022.00,0.3203
6021.00,0.3203
6020.00,0.3202
6019.00,0.3202
6018.00,0.3202
6017.00,0.3202
6016.00,0.3201
6015.00,0.3201
6014.00,0.3200
6013.00,0.3200
6012.00,0.3199
6011.00,0.3199
6010.00,0.3199
6009.00,0.3198
6008.00,0.3198
6007.00,0.3198
6006.00,0.3197
6005.00,0.3197
6004.00,0.3197
6003.00,0.3197
6002.00,0.3197
6001.00,0.3197
6000.00,0.3197
5999.00,0.3198
5998.00,0.3198
5997.00,0.3198
5996.00,0.3197
5995.00,0.3197
5994.00,0.3197
5993.00,0.3197
5992.00,0.3197
5991.00,0.3197
5990.00,0.3197
5989.00,0.3197
5988.00,0.3197
5987.00,0.3197
5986.00,0.3197
5985.00,0.3197
5984.00,0.3197
5983.00,0.3197
5982.00,0.3198
5981.00,0.3198
5980.00,0.3198
5979.00,0.3199
5978.00,0.3199
5977.00,0.3199
5976.00,0.3199
5975.00,0.3199
5974.00,0.3200
5973.00,0.3201
5972.00,0.3202
5971.00,0.3203
5970.00,0.3203
5969.00,0.3204
5968.00,0.3205
5967.00,0.3205
5966.00,0.3206
5965.00,0.3207
5964.00,0.3208
5963.00,0.3209
5962.00,0.3210
5961.00,0.3211
5960.00,0.3212
5959.00,0.3213
5958.00,0.3214
5957.00,0.3215
5956.00,0.3217
5955.00,0.3218
5954.00,0.3220
5953.00,0.3221
5952.00,0.3223
5951.00,0.3224
5950.00,0.3225
5949.00,0.3226
5948.00,0.3228
5947.00,0.3229
5946.00,0.3230
5945.00,0.3231
5944.00,0.3233
5943.00,0.3234
5942.00,0.3236
5941.00,0.3238
5940.00,0.3240
5939.00,0.3242
5938.00,0.3244
5937.00,0.3246
5936.00,0.3248
5935.00,0.3250
5934.00,0.3251
5933.00,0.3252
5932.00,0.3254
5931.00,0.3255
5930.00,0.3257
5929.00,0.3259
5928.00,0.3260
5927.00,0.3261
5926.00,0.3262
5925.00,0.3263
5924.00,0.3264
5923.00,0.3265
5922.00,0.3266
5921.00,0.3267
5920.00,0.3269
5919.00,0.3270
5918.00,0.3271
5917.00,0.3272
5916.00,0.3274
5915.00,0.3275
5914.00,0.3276
5913.00,0.3277
5912.00,0.3278
5911.00,0.3279
5910.00,0.3279
5909.00,0.3280
5908.00,0.3280
5907.00,0.3281
5906.00,0.3281
5905.00,0.3282
5904.00,0.3282
5903.00,0.3282
5902.00,0.3282
5901.00,0.3283
5900.00,0.3283
5899.00,0.3284
5898.00,0.3284
5897.00,0.3284
5896.00,0.3284
5895.00,0.3284
5894.00,0.3285
5893.00,0.3285
5892.00,0.3286
5891.00,0.3287
5890.00,0.3287
5889.00,0.3288
5888.00,0.3288
5887.00,0.3288
5886.00,0.3289
5885.00,0.3289
5884.00,0.3290
5883.00,0.3290
5882.00,0.3291
5881.00,0.3291
5880.00,0.3292
5879.00,0.3292
5878.00,0.3293
5877.00,0.3294
5876.00,0.3295
5875.00,0.3296
5874.00,0.3297
5873.00,0.3297
5872.00,0.3297
5871.00,0.3298
5870.00,0.3298
5869.00,0.3298
5868.00,0.3299
5867.00,0.3299
5866.00,0.3299
5865.00,0.3300
5864.00,0.3300
5863.00,0.3301
5862.00,0.3301
5861.00,0.3302
5860.00,0.3302
5859.00,0.3303
5858.00,0.3304
5857.00,0.3304
5856.00,0.3305
5855.00,0.3306
5854.00,0.3307
5853.00,0.3308
5852.00,0.3308
5851.00,0.3309
5850.00,0.3309
5849.00,0.3310
5848.00,0.3310
5847.00,0.3311
5846.00,0.3312
5845.00,0.3312
5844.00,0.3314
5843.00,0.3315
5842.00,0.3316
5841.00,0.3317
5840.00,0.3319
5839.00,0.3320
5838.00,0.3322
5837.00,0.3323
5836.00,0.3324
5835.00,0.3325
5834.00,0.3327
5833.00,0.3328
5832.00,0.3329
5831.00,0.3330
5830.00,0.3331
5829.00,0.3333
5828.00,0.3334
5827.00,0.3335
5826.00,0.3337
5825.00,0.3338
5824.00,0.3339
5823.00,0.3341
5822.00,0.3342
5821.00,0.3343
5820.00,0.3344
5819.00,0.3345
5818.00,0.3346
5817.00,0.3347
5816.00,0.3349
5815.00,0.3350
5814.00,0.3351
5813.00,0.3353
5812.00,0.3354
5811.00,0.3355
5810.00,0.3357
5809.00,0.3358
5808.00,0.3359
5807.00,0.3360
5806.00,0.3361
5805.00,0.3362
5804.00,0.3363
5803.00,0.3364
5802.00,0.3365
5801.00,0.3366
5800.00,0.3367
5799.00,0.3368
5798.00,0.3370
5797.00,0.3371
5796.00,0.3372
5795.00,0.3373
5794.00,0.3374
5793.00,0.3375
5792.00,0.3375
5791.00,0.3376
5790.00,0.3377
5789.00,0.3378
5788.00,0.3379
5787.00,0.3380
5786.00,0.3381
5785.00,0.3382
5784.00,0.3382
5783.00,0.3383
5782.00,0.3383
5781.00,0.3384
5780.00,0.3384
5779.00,0.3384
5778.00,0.3385
5777.00,0.3386
5776.00,0.3386
5775.00,0.3387
5774.00,0.3387
5773.00,0.3387
5772.00,0.3387
5771.00,0.3388
5770.00,0.3388
5769.00,0.3388
5768.00,0.3389
5767.00,0.3389
5766.00,0.3390
5765.00,0.3390
5764.00,0.3390
5763.00,0.3390
5762.00,0.3391
5761.00,0.3391
5760.00,0.3391
5759.00,0.3392
5758.00,0.3392
5757.00,0.3392
5756.00,0.3392
5755.00,0.3391
5754.00,0.3391
5753.00,0.3392
5752.00,0.3392
5751.00,0.3392
5750.00,0.3393
5749.00,0.3393
5748.00,0.3393
5747.00,0.3394
5746.00,0.3394
5745.00,0.3394
5744.00,0.3394
5743.00,0.3394
5742.00,0.3394
5741.00,0.3394
5740.00,0.3394
5739.00,0.3394
5738.00,0.3395
5737.00,0.3395
5736.00,0.3395
5735.00,0.3395
5734.00,0.3395
5733.00,0.3395
5732.00,0.3395
5731.00,0.3395
5730.00,0.3396
5729.00,0.3396
5728.00,0.3397
5727.00,0.3397
5726.00,0.3398
5725.00,0.3398
5724.00,0.3397
5723.00,0.3397
5722.00,0.3397
5721.00,0.3397
5720.00,0.3397
5719.00,0.3398
5718.00,0.3398
5717.00,0.3399
5716.00,0.3399
5715.00,0.3399
5714.00,0.3400
5713.00,0.3400
5712.00,0.3401
5711.00,0.3401
5710.00,0.3401
5709.00,0.3400
5708.00,0.3400
5707.00,0.3400
5706.00,0.3400
5705.00,0.3399
5704.00,0.3400
5703.00,0.3400
5702.00,0.3401
5701.00,0.3401
5700.00,0.3401
5699.00,0.3402
5698.00,0.3402
5697.00,0.3402
5696.00,0.3402
5695.00,0.3402
5694.00,0.3402
5693.00,0.3402
5692.00,0.3403
5691.00,0.3403
5690.00,0.3404
5689.00,0.3404
5688.00,0.3404
5687.00,0.3405
5686.00,0.3405
5685.00,0.3405
5684.00,0.3405
5683.00,0.3405
5682.00,0.3405
5681.00,0.3406
5680.00,0.3406
5679.00,0.3406
5678.00,0.3407
5677.00,0.3407
5676.00,0.3407
5675.00,0.3407
5674.00,0.3407
5673.00,0.3407
5672.00,0.3407
5671.00,0.3407
5670.00,0.3407
5669.00,0.3408
5668.00,0.3408
5667.00,0.3408
5666.00,0.3408
5665.00,0.3408
5664.00,0.3408
5663.00,0.3408
5662.00,0.3407
5661.00,0.3407
5660.00,0.3407
5659.00,0.3406
5658.00,0.3406
5657.00,0.3406
5656.00,0.3406
5655.00,0.3405
5654.00,0.3405
5653.00,0.3405
5652.00,0.3405
5651.00,0.3405
5650.00,0.3405
5649.00,0.3405
5648.00,0.3404
5647.00,0.3404
5646.00,0.3403
5645.00,0.3403
5644.00,0.3403
5643.00,0.3403
5642.00,0.3403
5641.00,0.3402
5640.00,0.3402
5639.00,0.3402
5638.00,0.3402
5637.00,0.3402
5636.00,0.3402
5635.00,0.3402
5634.00,0.3402
5633.00,0.3401
5632.00,0.3401
5631.00,0.3401
5630.00,0.3400
5629.00,0.3400
5628.00,0.3400
5627.00,0.3400
5626.00,0.3400
5625.00,0.3400
5624.00,0.3400
5623.00,0.3399
5622.00,0.3399
5621.00,0.3398
5620.00,0.3398
5619.00,0.3397
5618.00,0.3397
5617.00,0.3397
5616.00,0.3396
5615.00,0.3396
5614.00,0.3395
5613.00,0.3395
5612.00,0.3394
5611.00,0.3394
5610.00,0.3393
5609.00,0.3393
5608.00,0.3393
5607.00,0.3393
5606.00,0.3393
5605.00,0.3393
5604.00,0.3393
5603.00,0.3392
5602.00,0.3391
5601.00,0.3390
5600.00,0.3390
5599.00,0.3389
5598.00,0.3389
5597.00,0.3388
5596.00,0.3387
5595.00,0.3386
5594.00,0.3385
5593.00,0.3384
5592.00,0.3383
5591.00,0.3383
5590.00,0.3382
5589.00,0.3382
5588.00,0.3381
5587.00,0.3381
5586.00,0.3380
5585.00,0.3379
5584.00,0.3379
5583.00,0.3378
5582.00,0.3378
5581.00,0.3378
5580.00,0.3377
5579.00,0.3377
5578.00,0.3376
5577.00,0.3376
5576.00,0.3375
5575.00,0.3374
5574.00,0.3373
5573.00,0.3373
5572.00,0.3373
5571.00,0.3372
5570.00,0.3372
5569.00,0.3372
5568.00,0.3371
5567.00,0.3370
5566.00,0.3369
5565.00,0.3368
5564.00,0.3367
5563.00,0.3366
5562.00,0.3365
5561.00,0.3364
5560.00,0.3364
5559.00,0.3365
5558.00,0.3365
5557.00,0.3366
5556.00,0.3366
5555.00,0.3366
5554.00,0.3366
5553.00,0.3365
5552.00,0.3364
5551.00,0.3363
5550.00,0.3361
5549.00,0.3360
5548.00,0.3359
5547.00,0.3357
5546.00,0.3356
5545.00,0.3354
5544.00,0.3353
5543.00,0.3352
5542.00,0.3352
5541.00,0.3354
5540.00,0.3355
5539.00,0.3356
5538.00,0.3356
5537.00,0.3355
5536.00,0.3353
5535.00,0.3351
5534.00,0.3348
5533.00,0.3346
5532.00,0.3345
5531.00,0.3345
5530.00,0.3344
5529.00,0.3343
5528.00,0.3343
5527.00,0.3344
5526.00,0.3345
5525.00,0.3347
5524.00,0.3348
5523.00,0.3349
5522.00,0.3349
5521.00,0.3348
5520.00,0.3348
5519.00,0.3347
5518.00,0.3346
5517.00,0.3344
5516.00,0.3342
5515.00,0.3340
5514.00,0.3338
5513.00,0.3338
5512.00,0.3341
5511.00,0.3346
5510.00,0.3350
5509.00,0.3351
5508.00,0.3350
5507.00,0.3347
5506.00,0.3343
5505.00,0.3338
5504.00,0.3335
5503.00,0.3334
5502.00,0.3334
5501.00,0.3334
5500.00,0.3333
5499.00,0.3333
5498.00,0.3337
5497.00,0.3344
5496.00,0.3351
5495.00,0.3357
5494.00,0.3360
5493.00,0.3361
5492.00,0.3359
5491.00,0.3353
5490.00,0.3345
5489.00,0.3338
5488.00,0.3333
5487.00,0.3328
5486.00,0.3323
5485.00,0.3318
5484.00,0.3314
5483.00,0.3313
5482.00,0.3314
5481.00,0.3318
5480.00,0.3326
5479.00,0.3337
5478.00,0.3347
5477.00,0.3350
5476.00,0.3347
5475.00,0.3340
5474.00,0.3331
5473.00,0.3323
5472.00,0.3319
5471.00,0.3320
5470.00,0.3325
5469.00,0.3328
5468.00,0.3329
5467.00,0.3327
5466.00,0.3327
5465.00,0.3328
5464.00,0.3330
5463.00,0.3331
5462.00,0.3329
5461.00,0.3325
5460.00,0.3320
5459.00,0.3314
5458.00,0.3309
5457.00,0.3304
5456.00,0.3301
5455.00,0.3300
5454.00,0.3302
5453.00,0.3305
5452.00,0.3309
5451.00,0.3315
5450.00,0.3322
5449.00,0.3329
5448.00,0.3330
5447.00,0.3329
5446.00,0.3328
5445.00,0.3329
5444.00,0.3327
5443.00,0.3322
5442.00,0.3313
5441.00,0.3304
5440.00,0.3300
5439.00,0.3299
5438.00,0.3299
5437.00,0.3301
5436.00,0.3302
5435.00,0.3303
5434.00,0.3304
5433.00,0.3306
5432.00,0.3308
5431.00,0.3309
5430.00,0.3309
5429.00,0.3303
5428.00,0.3293
5427.00,0.3280
5426.00,0.3269
5425.00,0.3261
5424.00,0.3258
5423.00,0.3257
5422.00,0.3256
5421.00,0.3256
5420.00,0.3258
5419.00,0.3264
5418.00,0.3275
5417.00,0.3287
5416.00,0.3299
5415.00,0.3308
5414.00,0.3313
5413.00,0.3312
5412.00,0.3303
5411.00,0.3290
5410.00,0.3277
5409.00,0.3266
5408.00,0.3258
5407.00,0.3253
5406.00,0.3250
5405.00,0.3248
5404.00,0.3247
5403.00,0.3245
5402.00,0.3244
5401.00,0.3245
5400.00,0.3249
5399.00,0.3256
5398.00,0.3266
5397.00,0.3273
5396.00,0.3276
5395.00,0.3271
5394.00,0.3262
5393.00,0.3252
5392.00,0.3244
5391.00,0.3241
5390.00,0.3245
5389.00,0.3252
5388.00,0.3259
5387.00,0.3262
5386.00,0.3259
5385.00,0.3252
5384.00,0.3243
5383.00,0.3237
5382.00,0.3237
5381.00,0.3244
5380.00,0.3255
5379.00,0.3265
5378.00,0.3271
5377.00,0.3271
5376.00,0.3265
5375.00,0.3254
5374.00,0.3243
5373.00,0.3234
5372.00,0.3230
5371.00,0.3229
5370.00,0.3230
5369.00,0.3234
5368.00,0.3240
5367.00,0.3246
5366.00,0.3250
5365.00,0.3251
5364.00,0.3250
5363.00,0.3246
5362.00,0.3241
5361.00,0.3236
5360.00,0.3237
5359.00,0.3243
5358.00,0.3257
5357.00,0.3274
5356.00,0.3288
5355.00,0.3295
5354.00,0.3294
5353.00,0.3288
5352.00,0.3281
5351.00,0.3275
5350.00,0.3275
5349.00,0.3284
5348.00,0.3300
5347.00,0.3312
5346.00,0.3314
5345.00,0.3309
5344.00,0.3303
5343.00,0.3300
5342.00,0.3302
5341.00,0.3308
5340.00,0.3314
5339.00,0.3318
5338.00,0.3314
5337.00,0.3305
5336.00,0.3296
5335.00,0.3290
5334.00,0.3288
5333.00,0.3291
5332.00,0.3297
5331.00,0.3305
5330.00,0.3309
5329.00,0.3310
5328.00,0.3309
5327.00,0.3306
5326.00,0.3302
5325.00,0.3297
5324.00,0.3294
5323.00,0.3294
5322.00,0.3298
5321.00,0.3304
5320.00,0.3310
5319.00,0.3315
5318.00,0.3320
5317.00,0.3323
5316.00,0.3326
5315.00,0.3328
5314.00,0.3330
5313.00,0.3334
5312.00,0.3343
5311.00,0.3353
5310.00,0.3364
5309.00,0.3371
5308.00,0.3376
5307.00,0.3378
5306.00,0.3379
5305.00,0.3380
5304.00,0.3383
5303.00,0.3390
5302.00,0.3398
5301.00,0.3404
5300.00,0.3408
5299.00,0.3412
5298.00,0.3417
5297.00,0.3422
5296.00,0.3431
5295.00,0.3443
5294.00,0.3458
5293.00,0.3472
5292.00,0.3483
5291.00,0.3491
5290.00,0.3497
5289.00,0.3503
5288.00,0.3508
5287.00,0.3515
5286.00,0.3525
5285.00,0.3535
5284.00,0.3546
5283.00,0.3554
5282.00,0.3561
5281.00,0.3569
5280.00,0.3577
5279.00,0.3586
5278.00,0.3595
5277.00,0.3604
5276.00,0.3614
5275.00,0.3626
5274.00,0.3641
5273.00,0.3657
5272.00,0.3673
5271.00,0.3689
5270.00,0.3705
5269.00,0.3723
5268.00,0.3742
5267.00,0.3762
5266.00,0.3780
5265.00,0.3796
5264.00,0.3808
5263.00,0.3815
5262.00,0.3818
5261.00,0.3821
5260.00,0.3830
5259.00,0.3845
5258.00,0.3864
5257.00,0.3884
5256.00,0.3900
5255.00,0.3912
5254.00,0.3923
5253.00,0.3935
5252.00,0.3951
5251.00,0.3972
5250.00,0.3995
5249.00,0.4017
5248.00,0.4036
5247.00,0.4048
5246.00,0.4053
5245.00,0.4056
5244.00,0.4059
5243.00,0.4065
5242.00,0.4073
5241.00,0.4082
5240.00,0.4093
5239.00,0.4107
5238.00,0.4123
5237.00,0.4139
5236.00,0.4154
5235.00,0.4171
5234.00,0.4187
5233.00,0.4201
5232.00,0.4212
5231.00,0.4223
5230.00,0.4237
5229.00,0.4252
5228.00,0.4269
5227.00,0.4283
5226.00,0.4294
5225.00,0.4300
5224.00,0.4302
5223.00,0.4305
5222.00,0.4312
5221.00,0.4323
5220.00,0.4334
5219.00,0.4344
5218.00,0.4351
5217.00,0.4356
5216.00,0.4360
5215.00,0.4367
5214.00,0.4377
5213.00,0.4392
5212.00,0.4411
5211.00,0.4433
5210.00,0.4455
5209.00,0.4473
5208.00,0.4483
5207.00,0.4483
5206.00,0.4476
5205.00,0.4468
5204.00,0.4463
5203.00,0.4463
5202.00,0.4470
5201.00,0.4483
5200.00,0.4496
5199.00,0.4507
5198.00,0.4513
5197.00,0.4515
5196.00,0.4516
5195.00,0.4517
5194.00,0.4519
5193.00,0.4525
5192.00,0.4533
5191.00,0.4541
5190.00,0.4549
5189.00,0.4556
5188.00,0.4562
5187.00,0.4567
5186.00,0.4569
5185.00,0.4570
5184.00,0.4570
5183.00,0.4571
5182.00,0.4571
5181.00,0.4572
5180.00,0.4575
5179.00,0.4577
5178.00,0.4578
5177.00,0.4577
5176.00,0.4578
5175.00,0.4580
5174.00,0.4583
5173.00,0.4586
5172.00,0.4587
5171.00,0.4587
5170.00,0.4586
5169.00,0.4585
5168.00,0.4585
5167.00,0.4587
5166.00,0.4590
5165.00,0.4591
5164.00,0.4591
5163.00,0.4590
5162.00,0.4588
5161.00,0.4586
5160.00,0.4587
5159.00,0.4588
5158.00,0.4589
5157.00,0.4587
5156.00,0.4584
5155.00,0.4580
5154.00,0.4576
5153.00,0.4573
5152.00,0.4569
5151.00,0.4566
5150.00,0.4563
5149.00,0.4560
5148.00,0.4557
5147.00,0.4556
5146.00,0.4555
5145.00,0.4555
5144.00,0.4554
5143.00,0.4552
5142.00,0.4548
5141.00,0.4544
5140.00,0.4539
5139.00,0.4535
5138.00,0.4532
5137.00,0.4530
5136.00,0.4528
5135.00,0.4525
5134.00,0.4521
5133.00,0.4516
5132.00,0.4512
5131.00,0.4508
5130.00,0.4503
5129.00,0.4499
5128.00,0.4496
5127.00,0.4492
5126.00,0.4489
5125.00,0.4485
5124.00,0.4482
5123.00,0.4480
5122.00,0.4477
5121.00,0.4474
5120.00,0.4470
5119.00,0.4466
5118.00,0.4461
5117.00,0.4457
5116.00,0.4452
5115.00,0.4448
5114.00,0.4445
5113.00,0.4441
5112.00,0.4437
5111.00,0.4432
5110.00,0.4428
5109.00,0.4424
5108.00,0.4419
5107.00,0.4415
5106.00,0.4411
5105.00,0.4407
5104.00,0.4403
5103.00,0.4400
5102.00,0.4396
5101.00,0.4393
5100.00,0.4390
5099.00,0.4387
5098.00,0.4384
5097.00,0.4381
5096.00,0.4378
5095.00,0.4374
5094.00,0.4371
5093.00,0.4367
5092.00,0.4363
5091.00,0.4359
5090.00,0.4356
5089.00,0.4352
5088.00,0.4349
5087.00,0.4347
5086.00,0.4344
5085.00,0.4341
5084.00,0.4338
5083.00,0.4335
5082.00,0.4332
5081.00,0.4329
5080.00,0.4326
5079.00,0.4323
5078.00,0.4321
5077.00,0.4318
5076.00,0.4315
5075.00,0.4312
5074.00,0.4309
5073.00,0.4306
5072.00,0.4303
5071.00,0.4299
5070.00,0.4296
5069.00,0.4293
5068.00,0.4290
5067.00,0.4287
5066.00,0.4284
5065.00,0.4281
5064.00,0.4277
5063.00,0.4274
5062.00,0.4270
5061.00,0.4267
5060.00,0.4264
5059.00,0.4261
5058.00,0.4258
5057.00,0.4254
5056.00,0.4251
5055.00,0.4248
5054.00,0.4244
5053.00,0.4241
5052.00,0.4238
5051.00,0.4235
5050.00,0.4232
5049.00,0.4228
5048.00,0.4224
5047.00,0.4221
5046.00,0.4217
5045.00,0.4213
5044.00,0.4209
5043.00,0.4205
5042.00,0.4202
5041.00,0.4198
5040.00,0.4194
5039.00,0.4191
5038.00,0.4187
5037.00,0.4184
5036.00,0.4181
5035.00,0.4178
5034.00,0.4175
5033.00,0.4171
5032.00,0.4167
5031.00,0.4163
5030.00,0.4160
5029.00,0.4156
5028.00,0.4152
5027.00,0.4149
5026.00,0.4145
5025.00,0.4142
5024.00,0.4138
5023.00,0.4134
5022.00,0.4130
5021.00,0.4126
5020.00,0.4123
5019.00,0.4120
5018.00,0.4117
5017.00,0.4114
5016.00,0.4111
5015.00,0.4108
5014.00,0.4105
5013.00,0.4101
5012.00,0.4098
5011.00,0.4095
5010.00,0.4092
5009.00,0.4089
5008.00,0.4086
5007.00,0.4083
5006.00,0.4081
5005.00,0.4079
5004.00,0.4076
5003.00,0.4074
5002.00,0.4072
5001.00,0.4070
5000.00,0.4067
4999.00,0.4065
4998.00,0.4064
4997.00,0.4062
4996.00,0.4060
4995.00,0.4059
4994.00,0.4058
4993.00,0.4056
4992.00,0.4055
4991.00,0.4054
4990.00,0.4053
4989.00,0.4052
4988.00,0.4051
4987.00,0.4050
4986.00,0.4050
4985.00,0.4049
4984.00,0.4049
4983.00,0.4049
4982.00,0.4049
4981.00,0.4049
4980.00,0.4049
4979.00,0.4050
4978.00,0.4050
4977.00,0.4051
4976.00,0.4052
4975.00,0.4053
4974.00,0.4055
4973.00,0.4056
4972.00,0.4057
4971.00,0.4059
4970.00,0.4061
4969.00,0.4063
4968.00,0.4065
4967.00,0.4067
4966.00,0.4070
4965.00,0.4073
4964.00,0.4076
4963.00,0.4079
4962.00,0.4082
4961.00,0.4085
4960.00,0.4088
4959.00,0.4091
4958.00,0.4094
4957.00,0.4098
4956.00,0.4101
4955.00,0.4105
4954.00,0.4109
4953.00,0.4113
4952.00,0.4117
4951.00,0.4121
4950.00,0.4125
4949.00,0.4129
4948.00,0.4134
4947.00,0.4138
4946.00,0.4143
4945.00,0.4148
4944.00,0.4153
4943.00,0.4158
4942.00,0.4163
4941.00,0.4168
4940.00,0.4173
4939.00,0.4179
4938.00,0.4185
4937.00,0.4190
4936.00,0.4196
4935.00,0.4202
4934.00,0.4208
4933.00,0.4215
4932.00,0.4221
4931.00,0.4227
4930.00,0.4234
4929.00,0.4240
4928.00,0.4247
4927.00,0.4254
4926.00,0.4261
4925.00,0.4268
4924.00,0.4275
4923.00,0.4282
4922.00,0.4289
4921.00,0.4297
4920.00,0.4304
4919.00,0.4311
4918.00,0.4319
4917.00,0.4327
4916.00,0.4334
4915.00,0.4342
4914.00,0.4350
4913.00,0.4358
4912.00,0.4366
4911.00,0.4373
4910.00,0.4381
4909.00,0.4389
4908.00,0.4398
4907.00,0.4406
4906.00,0.4414
4905.00,0.4422
4904.00,0.4431
4903.00,0.4439
4902.00,0.4447
4901.00,0.4455
4900.00,0.4464
4899.00,0.4472
4898.00,0.4480
4897.00,0.4488
4896.00,0.4496
4895.00,0.4505
4894.00,0.4514
4893.00,0.4523
4892.00,0.4532
4891.00,0.4541
4890.00,0.4549
4889.00,0.4558
4888.00,0.4566
4887.00,0.4574
4886.00,0.4582
4885.00,0.4591
4884.00,0.4599
4883.00,0.4608
4882.00,0.4617
4881.00,0.4625
4880.00,0.4634
4879.00,0.4643
4878.00,0.4652
4877.00,0.4660
4876.00,0.4669
4875.00,0.4678
4874.00,0.4687
4873.00,0.4695
4872.00,0.4704
4871.00,0.4713
4870.00,0.4721
4869.00,0.4730
4868.00,0.4738
4867.00,0.4746
4866.00,0.4754
4865.00,0.4761
4864.00,0.4770
4863.00,0.4778
4862.00,0.4786
4861.00,0.4794
4860.00,0.4801
4859.00,0.4809
4858.00,0.4816
4857.00,0.4823
4856.00,0.4829
4855.00,0.4836
4854.00,0.4843
4853.00,0.4851
4852.00,0.4858
4851.00,0.4865
4850.00,0.4872
4849.00,0.4879
4848.00,0.4886
4847.00,0.4893
4846.00,0.4900
4845.00,0.4907
4844.00,0.4914
4843.00,0.4921
4842.00,0.4928
4841.00,0.4935
4840.00,0.4941
4839.00,0.4948
4838.00,0.4955
4837.00,0.4962
4836.00,0.4968
4835.00,0.4975
4834.00,0.4982
4833.00,0.4988
4832.00,0.4994
4831.00,0.5001
4830.00,0.5007
4829.00,0.5013
4828.00,0.5019
4827.00,0.5025
4826.00,0.5031
4825.00,0.5036
4824.00,0.5042
4823.00,0.5048
4822.00,0.5053
4821.00,0.5059
4820.00,0.5064
4819.00,0.5069
4818.00,0.5075
4817.00,0.5080
4816.00,0.5085
4815.00,0.5090
4814.00,0.5095
4813.00,0.5100
4812.00,0.5105
4811.00,0.5109
4810.00,0.5114
4809.00,0.5119
4808.00,0.5124
4807.00,0.5129
4806.00,0.5133
4805.00,0.5137
4804.00,0.5140
4803.00,0.5144
4802.00,0.5148
4801.00,0.5152
4800.00,0.5156
4799.00,0.5159
4798.00,0.5162
4797.00,0.5165
4796.00,0.5168
4795.00,0.5172
4794.00,0.5175
4793.00,0.5179
4792.00,0.5183
4791.00,0.5186
4790.00,0.5189
4789.00,0.5192
4788.00,0.5194
4787.00,0.5197
4786.00,0.5199
4785.00,0.5201
4784.00,0.5203
4783.00,0.5206
4782.00,0.5209
4781.00,0.5211
4780.00,0.5214
4779.00,0.5217
4778.00,0.5220
4777.00,0.5223
4776.00,0.5226
4775.00,0.5228
4774.00,0.5230
4773.00,0.5232
4772.00,0.5234
4771.00,0.5236
4770.00,0.5238
4769.00,0.5240
4768.00,0.5241
4767.00,0.5243
4766.00,0.5245
4765.00,0.5247
4764.00,0.5249
4763.00,0.5250
4762.00,0.5251
4761.00,0.5252
4760.00,0.5253
4759.00,0.5254
4758.00,0.5256
4757.00,0.5257
4756.00,0.5259
4755.00,0.5260
4754.00,0.5261
4753.00,0.5261
4752.00,0.5261
4751.00,0.5261
4750.00,0.5261
4749.00,0.5261
4748.00,0.5261
4747.00,0.5261
4746.00,0.5260
4745.00,0.5260
4744.00,0.5259
4743.00,0.5258
4742.00,0.5258
4741.00,0.5257
4740.00,0.5257
4739.00,0.5256
4738.00,0.5255
4737.00,0.5254
4736.00,0.5253
4735.00,0.5251
4734.00,0.5250
4733.00,0.5249
4732.00,0.5248
4731.00,0.5246
4730.00,0.5245
4729.00,0.5243
4728.00,0.5242
4727.00,0.5240
4726.00,0.5238
4725.00,0.5236
4724.00,0.5234
4723.00,0.5232
4722.00,0.5230
4721.00,0.5229
4720.00,0.5227
4719.00,0.5226
4718.00,0.5224
4717.00,0.5221
4716.00,0.5219
4715.00,0.5216
4714.00,0.5214
4713.00,0.5211
4712.00,0.5209
4711.00,0.5207
4710.00,0.5204
4709.00,0.5202
4708.00,0.5200
4707.00,0.5198
4706.00,0.5195
4705.00,0.5193
4704.00,0.5190
4703.00,0.5187
4702.00,0.5185
4701.00,0.5182
4700.00,0.5179
4699.00,0.5176
4698.00,0.5173
4697.00,0.5169
4696.00,0.5166
4695.00,0.5163
4694.00,0.5160
4693.00,0.5157
4692.00,0.5154
4691.00,0.5152
4690.00,0.5149
4689.00,0.5146
4688.00,0.5144
4687.00,0.5141
4686.00,0.5138
4685.00,0.5136
4684.00,0.5133
4683.00,0.5130
4682.00,0.5127
4681.00,0.5123
4680.00,0.5119
4679.00,0.5115
4678.00,0.5111
4677.00,0.5108
4676.00,0.5104
4675.00,0.5101
4674.00,0.5099
4673.00,0.5096
4672.00,0.5094
4671.00,0.5092
4670.00,0.5089
4669.00,0.5086
4668.00,0.5083
4667.00,0.5080
4666.00,0.5077
4665.00,0.5073
4664.00,0.5070
4663.00,0.5067
4662.00,0.5064
4661.00,0.5061
4660.00,0.5058
4659.00,0.5056
4658.00,0.5052
4657.00,0.5049
4656.00,0.5046
4655.00,0.5043
4654.00,0.5040
4653.00,0.5037
4652.00,0.5034
4651.00,0.5032
4650.00,0.5029
4649.00,0.5026
4648.00,0.5023
4647.00,0.5020
4646.00,0.5017
4645.00,0.5013
4644.00,0.5010
4643.00,0.5007
4642.00,0.5005
4641.00,0.5003
4640.00,0.5001
4639.00,0.4999
4638.00,0.4996
4637.00,0.4993
4636.00,0.4990
4635.00,0.4987
4634.00,0.4985
4633.00,0.4982
4632.00,0.4980
4631.00,0.4977
4630.00,0.4974
4629.00,0.4971
4628.00,0.4969
4627.00,0.4966
4626.00,0.4964
4625.00,0.4962
4624.00,0.4961
4623.00,0.4959
4622.00,0.4957
4621.00,0.4955
4620.00,0.4953
4619.00,0.4951
4618.00,0.4948
4617.00,0.4946
4616.00,0.4944
4615.00,0.4942
4614.00,0.4940
4613.00,0.4939
4612.00,0.4937
4611.00,0.4936
4610.00,0.4934
4609.00,0.4932
4608.00,0.4929
4607.00,0.4927
4606.00,0.4926
4605.00,0.4924
4604.00,0.4923
4603.00,0.4921
4602.00,0.4920
4601.00,0.4918
4600.00,0.4915
4599.00,0.4913
4598.00,0.4911
4597.00,0.4910
4596.00,0.4908
4595.00,0.4907
4594.00,0.4906
4593.00,0.4905
4592.00,0.4904
4591.00,0.4902
4590.00,0.4900
4589.00,0.4898
4588.00,0.4896
4587.00,0.4894
4586.00,0.4892
4585.00,0.4891
4584.00,0.4890
4583.00,0.4888
4582.00,0.4886
4581.00,0.4884
4580.00,0.4883
4579.00,0.4881
4578.00,0.4880
4577.00,0.4878
4576.00,0.4876
4575.00,0.4875
4574.00,0.4872
4573.00,0.4870
4572.00,0.4868
4571.00,0.4867
4570.00,0.4865
4569.00,0.4864
4568.00,0.4862
4567.00,0.4861
4566.00,0.4859
4565.00,0.4857
4564.00,0.4856
4563.00,0.4854
4562.00,0.4853
4561.00,0.4851
4560.00,0.4849
4559.00,0.4847
4558.00,0.4845
4557.00,0.4843
4556.00,0.4842
4555.00,0.4840
4554.00,0.4838
4553.00,0.4837
4552.00,0.4835
4551.00,0.4833
4550.00,0.4831
4549.00,0.4829
4548.00,0.4827
4547.00,0.4825
4546.00,0.4822
4545.00,0.4819
4544.00,0.4817
4543.00,0.4814
4542.00,0.4812
4541.00,0.4810
4540.00,0.4808
4539.00,0.4806
4538.00,0.4803
4537.00,0.4800
4536.00,0.4797
4535.00,0.4794
4534.00,0.4791
4533.00,0.4788
4532.00,0.4786
4531.00,0.4783
4530.00,0.4781
4529.00,0.4778
4528.00,0.4776
4527.00,0.4773
4526.00,0.4771
4525.00,0.4768
4524.00,0.4765
4523.00,0.4762
4522.00,0.4759
4521.00,0.4756
4520.00,0.4753
4519.00,0.4750
4518.00,0.4747
4517.00,0.4745
4516.00,0.4742
4515.00,0.4739
4514.00,0.4737
4513.00,0.4734
4512.00,0.4732
4511.00,0.4730
4510.00,0.4728
4509.00,0.4726
4508.00,0.4723
4507.00,0.4721
4506.00,0.4719
4505.00,0.4717
4504.00,0.4715
4503.00,0.4713
4502.00,0.4711
4501.00,0.4709
4500.00,0.4707
4499.00,0.4706
4498.00,0.4705
4497.00,0.4704
4496.00,0.4703
4495.00,0.4702
4494.00,0.4701
4493.00,0.4700
4492.00,0.4699
4491.00,0.4699
4490.00,0.4698
4489.00,0.4698
4488.00,0.4698
4487.00,0.4699
4486.00,0.4699
4485.00,0.4700
4484.00,0.4700
4483.00,0.4701
4482.00,0.4702
4481.00,0.4703
4480.00,0.4705
4479.00,0.4706
4478.00,0.4708
4477.00,0.4710
4476.00,0.4712
4475.00,0.4715
4474.00,0.4718
4473.00,0.4720
4472.00,0.4723
4471.00,0.4727
4470.00,0.4730
4469.00,0.4734
4468.00,0.4738
4467.00,0.4742
4466.00,0.4746
4465.00,0.4751
4464.00,0.4755
4463.00,0.4760
4462.00,0.4765
4461.00,0.4770
4460.00,0.4775
4459.00,0.4780
4458.00,0.4786
4457.00,0.4791
4456.00,0.4796
4455.00,0.4802
4454.00,0.4807
4453.00,0.4813
4452.00,0.4818
4451.00,0.4823
4450.00,0.4829
4449.00,0.4834
4448.00,0.4840
4447.00,0.4846
4446.00,0.4852
4445.00,0.4858
4444.00,0.4865
4443.00,0.4871
4442.00,0.4878
4441.00,0.4885
4440.00,0.4891
4439.00,0.4898
4438.00,0.4905
4437.00,0.4912
4436.00,0.4918
4435.00,0.4925
4434.00,0.4931
4433.00,0.4938
4432.00,0.4945
4431.00,0.4953
4430.00,0.4961
4429.00,0.4970
4428.00,0.4978
4427.00,0.4985
4426.00,0.4992
4425.00,0.5000
4424.00,0.5007
4423.00,0.5015
4422.00,0.5024
4421.00,0.5032
4420.00,0.5039
4419.00,0.5047
4418.00,0.5054
4417.00,0.5061
4416.00,0.5068
4415.00,0.5075
4414.00,0.5081
4413.00,0.5087
4412.00,0.5093
4411.00,0.5099
4410.00,0.5105
4409.00,0.5111
4408.00,0.5116
4407.00,0.5121
4406.00,0.5127
4405.00,0.5131
4404.00,0.5136
4403.00,0.5140
4402.00,0.5144
4401.00,0.5148
4400.00,0.5151
4399.00,0.5154
4398.00,0.5156
4397.00,0.5158
4396.00,0.5159
4395.00,0.5161
4394.00,0.5162
4393.00,0.5163
4392.00,0.5164
4391.00,0.5164
4390.00,0.5165
4389.00,0.5165
4388.00,0.5165
4387.00,0.5164
4386.00,0.5163
4385.00,0.5162
4384.00,0.5160
4383.00,0.5158
4382.00,0.5156
4381.00,0.5153
4380.00,0.5150
4379.00,0.5148
4378.00,0.5145
4377.00,0.5143
4376.00,0.5140
4375.00,0.5138
4374.00,0.5135
4373.00,0.5132
4372.00,0.5129
4371.00,0.5126
4370.00,0.5123
4369.00,0.5120
4368.00,0.5117
4367.00,0.5115
4366.00,0.5112
4365.00,0.5110
4364.00,0.5108
4363.00,0.5106
4362.00,0.5104
4361.00,0.5102
4360.00,0.5101
4359.00,0.5100
4358.00,0.5100
4357.00,0.5100
4356.00,0.5100
4355.00,0.5099
4354.00,0.5099
4353.00,0.5100
4352.00,0.5101
4351.00,0.5103
4350.00,0.5104
4349.00,0.5105
4348.00,0.5106
4347.00,0.5107
4346.00,0.5109
4345.00,0.5111
4344.00,0.5113
4343.00,0.5116
4342.00,0.5119
4341.00,0.5122
4340.00,0.5125
4339.00,0.5129
4338.00,0.5132
4337.00,0.5136
4336.00,0.5139
4335.00,0.5143
4334.00,0.5147
4333.00,0.5151
4332.00,0.5155
4331.00,0.5159
4330.00,0.5163
4329.00,0.5167
4328.00,0.5170
4327.00,0.5173
4326.00,0.5176
4325.00,0.5179
4324.00,0.5181
4323.00,0.5184
4322.00,0.5187
4321.00,0.5190
4320.00,0.5192
4319.00,0.5195
4318.00,0.5197
4317.00,0.5199
4316.00,0.5202
4315.00,0.5204
4314.00,0.5207
4313.00,0.5210
4312.00,0.5213
4311.00,0.5215
4310.00,0.5218
4309.00,0.5220
4308.00,0.5222
4307.00,0.5224
4306.00,0.5226
4305.00,0.5228
4304.00,0.5229
4303.00,0.5231
4302.00,0.5233
4301.00,0.5235
4300.00,0.5237
4299.00,0.5238
4298.00,0.5239
4297.00,0.5239
4296.00,0.5240
4295.00,0.5241
4294.00,0.5242
4293.00,0.5243
4292.00,0.5243
4291.00,0.5242
4290.00,0.5242
4289.00,0.5241
4288.00,0.5241
4287.00,0.5240
4286.00,0.5239
4285.00,0.5238
4284.00,0.5237
4283.00,0.5236
4282.00,0.5235
4281.00,0.5234
4280.00,0.5233
4279.00,0.5232
4278.00,0.5231
4277.00,0.5230
4276.00,0.5229
4275.00,0.5229
4274.00,0.5229
4273.00,0.5228
4272.00,0.5227
4271.00,0.5225
4270.00,0.5224
4269.00,0.5223
4268.00,0.5223
4267.00,0.5223
4266.00,0.5224
4265.00,0.5225
4264.00,0.5225
4263.00,0.5224
4262.00,0.5223
4261.00,0.5222
4260.00,0.5221
4259.00,0.5220
4258.00,0.5219
4257.00,0.5219
4256.00,0.5219
4255.00,0.5219
4254.00,0.5219
4253.00,0.5218
4252.00,0.5217
4251.00,0.5216
4250.00,0.5216
4249.00,0.5215
4248.00,0.5215
4247.00,0.5215
4246.00,0.5215
4245.00,0.5215
4244.00,0.5215
4243.00,0.5215
4242.00,0.5215
4241.00,0.5215
4240.00,0.5216
4239.00,0.5216
4238.00,0.5216
4237.00,0.5217
4236.00,0.5217
4235.00,0.5217
4234.00,0.5218
4233.00,0.5218
4232.00,0.5218
4231.00,0.5218
4230.00,0.5218
4229.00,0.5219
4228.00,0.5218
4227.00,0.5218
4226.00,0.5218
4225.00,0.5218
4224.00,0.5218
4223.00,0.5218
4222.00,0.5217
4221.00,0.5216
4220.00,0.5215
4219.00,0.5214
4218.00,0.5213
4217.00,0.5212
4216.00,0.5211
4215.00,0.5211
4214.00,0.5210
4213.00,0.5209
4212.00,0.5208
4211.00,0.5207
4210.00,0.5206
4209.00,0.5204
4208.00,0.5203
4207.00,0.5202
4206.00,0.5202
4205.00,0.5201
4204.00,0.5201
4203.00,0.5200
4202.00,0.5199
4201.00,0.5198
4200.00,0.5197
4199.00,0.5197
4198.00,0.5197
4197.00,0.5197
4196.00,0.5197
4195.00,0.5197
4194.00,0.5196
4193.00,0.5196
4192.00,0.5196
4191.00,0.5196
4190.00,0.5198
4189.00,0.5199
4188.00,0.5201
4187.00,0.5203
4186.00,0.5205
4185.00,0.5207
4184.00,0.5209
4183.00,0.5211
4182.00,0.5213
4181.00,0.5214
4180.00,0.5216
4179.00,0.5218
4178.00,0.5220
4177.00,0.5223
4176.00,0.5226
4175.00,0.5229
4174.00,0.5232
4173.00,0.5234
4172.00,0.5237
4171.00,0.5240
4170.00,0.5244
4169.00,0.5247
4168.00,0.5251
4167.00,0.5256
4166.00,0.5260
4165.00,0.5263
4164.00,0.5267
4163.00,0.5271
4162.00,0.5276
4161.00,0.5281
4160.00,0.5286
4159.00,0.5291
4158.00,0.5296
4157.00,0.5301
4156.00,0.5306
4155.00,0.5312
4154.00,0.5317
4153.00,0.5323
4152.00,0.5329
4151.00,0.5335
4150.00,0.5341
4149.00,0.5347
4148.00,0.5353
4147.00,0.5360
4146.00,0.5367
4145.00,0.5374
4144.00,0.5382
4143.00,0.5389
4142.00,0.5396
4141.00,0.5403
4140.00,0.5409
4139.00,0.5417
4138.00,0.5424
4137.00,0.5433
4136.00,0.5441
4135.00,0.5449
4134.00,0.5457
4133.00,0.5465
4132.00,0.5474
4131.00,0.5482
4130.00,0.5491
4129.00,0.5501
4128.00,0.5510
4127.00,0.5518
4126.00,0.5527
4125.00,0.5537
4124.00,0.5546
4123.00,0.5556
4122.00,0.5565
4121.00,0.5574
4120.00,0.5584
4119.00,0.5593
4118.00,0.5603
4117.00,0.5614
4116.00,0.5626
4115.00,0.5637
4114.00,0.5648
4113.00,0.5659
4112.00,0.5670
4111.00,0.5680
4110.00,0.5692
4109.00,0.5704
4108.00,0.5715
4107.00,0.5727
4106.00,0.5738
4105.00,0.5748
4104.00,0.5758
4103.00,0.5769
4102.00,0.5779
4101.00,0.5791
4100.00,0.5802
4099.00,0.5815
4098.00,0.5827
4097.00,0.5840
4096.00,0.5852
4095.00,0.5865
4094.00,0.5878
4093.00,0.5891
4092.00,0.5904
4091.00,0.5916
4090.00,0.5929
4089.00,0.5942
4088.00,0.5955
4087.00,0.5967
4086.00,0.5980
4085.00,0.5993
4084.00,0.6007
4083.00,0.6022
4082.00,0.6038
4081.00,0.6053
4080.00,0.6066
4079.00,0.6079
4078.00,0.6090
4077.00,0.6102
4076.00,0.6115
4075.00,0.6128
4074.00,0.6141
4073.00,0.6154
4072.00,0.6167
4071.00,0.6180
4070.00,0.6193
4069.00,0.6207
4068.00,0.6222
4067.00,0.6237
4066.00,0.6251
4065.00,0.6265
4064.00,0.6278
4063.00,0.6292
4062.00,0.6305
4061.00,0.6318
4060.00,0.6331
4059.00,0.6344
4058.00,0.6357
4057.00,0.6369
4056.00,0.6382
4055.00,0.6395
4054.00,0.6409
4053.00,0.6423
4052.00,0.6436
4051.00,0.6449
4050.00,0.6461
4049.00,0.6475
4048.00,0.6489
4047.00,0.6503
4046.00,0.6517
4045.00,0.6530
4044.00,0.6540
4043.00,0.6550
4042.00,0.6560
4041.00,0.6570
4040.00,0.6580
4039.00,0.6591
4038.00,0.6601
4037.00,0.6611
4036.00,0.6622
4035.00,0.6632
4034.00,0.6644
4033.00,0.6655
4032.00,0.6666
4031.00,0.6676
4030.00,0.6685
4029.00,0.6695
4028.00,0.6704
4027.00,0.6712
4026.00,0.6719
4025.00,0.6725
4024.00,0.6730
4023.00,0.6736
4022.00,0.6743
4021.00,0.6750
4020.00,0.6757
4019.00,0.6763
4018.00,0.6767
4017.00,0.6770
4016.00,0.6772
4015.00,0.6774
4014.00,0.6776
4013.00,0.6778
4012.00,0.6780
4011.00,0.6782
4010.00,0.6783
4009.00,0.6783
4008.00,0.6781
4007.00,0.6779
4006.00,0.6778
4005.00,0.6777
4004.00,0.6776
4003.00,0.6774
4002.00,0.6772
4001.00,0.6770
4000.00,0.6768
   㕕侱�
♼⠨⚚