Created As ASCII File,样品 068 用户 Administrator 日期 星期三, 四月 21 2021
cm-1,A
12000.00,0.1942
11999.00,0.1938
11998.00,0.1933
11997.00,0.1930
11996.00,0.1929
11995.00,0.1929
11994.00,0.1929
11993.00,0.1927
11992.00,0.1924
11991.00,0.1920
11990.00,0.1917
11989.00,0.1917
11988.00,0.1920
11987.00,0.1924
11986.00,0.1928
11985.00,0.1932
11984.00,0.1935
11983.00,0.1938
11982.00,0.1941
11981.00,0.1944
11980.00,0.1947
11979.00,0.1948
11978.00,0.1947
11977.00,0.1945
11976.00,0.1941
11975.00,0.1938
11974.00,0.1937
11973.00,0.1936
11972.00,0.1935
11971.00,0.1932
11970.00,0.1928
11969.00,0.1923
11968.00,0.1919
11967.00,0.1917
11966.00,0.1919
11965.00,0.1922
11964.00,0.1925
11963.00,0.1928
11962.00,0.1929
11961.00,0.1928
11960.00,0.1926
11959.00,0.1924
11958.00,0.1923
11957.00,0.1923
11956.00,0.1924
11955.00,0.1926
11954.00,0.1928
11953.00,0.1931
11952.00,0.1931
11951.00,0.1930
11950.00,0.1926
11949.00,0.1922
11948.00,0.1918
11947.00,0.1917
11946.00,0.1919
11945.00,0.1923
11944.00,0.1926
11943.00,0.1928
11942.00,0.1927
11941.00,0.1925
11940.00,0.1922
11939.00,0.1922
11938.00,0.1924
11937.00,0.1928
11936.00,0.1932
11935.00,0.1936
11934.00,0.1937
11933.00,0.1937
11932.00,0.1935
11931.00,0.1933
11930.00,0.1933
11929.00,0.1934
11928.00,0.1936
11927.00,0.1937
11926.00,0.1938
11925.00,0.1938
11924.00,0.1937
11923.00,0.1936
11922.00,0.1936
11921.00,0.1938
11920.00,0.1940
11919.00,0.1943
11918.00,0.1944
11917.00,0.1943
11916.00,0.1941
11915.00,0.1938
11914.00,0.1936
11913.00,0.1935
11912.00,0.1934
11911.00,0.1932
11910.00,0.1930
11909.00,0.1926
11908.00,0.1923
11907.00,0.1922
11906.00,0.1923
11905.00,0.1927
11904.00,0.1931
11903.00,0.1933
11902.00,0.1934
11901.00,0.1933
11900.00,0.1931
11899.00,0.1931
11898.00,0.1933
11897.00,0.1935
11896.00,0.1937
11895.00,0.1938
11894.00,0.1937
11893.00,0.1935
11892.00,0.1935
11891.00,0.1935
11890.00,0.1937
11889.00,0.1939
11888.00,0.1939
11887.00,0.1939
11886.00,0.1938
11885.00,0.1937
11884.00,0.1936
11883.00,0.1936
11882.00,0.1935
11881.00,0.1934
11880.00,0.1932
11879.00,0.1930
11878.00,0.1928
11877.00,0.1928
11876.00,0.1930
11875.00,0.1932
11874.00,0.1934
11873.00,0.1935
11872.00,0.1936
11871.00,0.1937
11870.00,0.1938
11869.00,0.1939
11868.00,0.1939
11867.00,0.1939
11866.00,0.1937
11865.00,0.1935
11864.00,0.1934
11863.00,0.1933
11862.00,0.1933
11861.00,0.1933
11860.00,0.1934
11859.00,0.1933
11858.00,0.1933
11857.00,0.1933
11856.00,0.1935
11855.00,0.1937
11854.00,0.1941
11853.00,0.1943
11852.00,0.1944
11851.00,0.1944
11850.00,0.1943
11849.00,0.1941
11848.00,0.1939
11847.00,0.1936
11846.00,0.1933
11845.00,0.1929
11844.00,0.1926
11843.00,0.1924
11842.00,0.1924
11841.00,0.1925
11840.00,0.1928
11839.00,0.1931
11838.00,0.1931
11837.00,0.1930
11836.00,0.1929
11835.00,0.1929
11834.00,0.1931
11833.00,0.1935
11832.00,0.1939
11831.00,0.1941
11830.00,0.1941
11829.00,0.1937
11828.00,0.1933
11827.00,0.1930
11826.00,0.1929
11825.00,0.1930
11824.00,0.1932
11823.00,0.1934
11822.00,0.1935
11821.00,0.1935
11820.00,0.1936
11819.00,0.1938
11818.00,0.1940
11817.00,0.1941
11816.00,0.1941
11815.00,0.1940
11814.00,0.1940
11813.00,0.1940
11812.00,0.1942
11811.00,0.1945
11810.00,0.1947
11809.00,0.1946
11808.00,0.1944
11807.00,0.1940
11806.00,0.1937
11805.00,0.1937
11804.00,0.1939
11803.00,0.1942
11802.00,0.1944
11801.00,0.1943
11800.00,0.1940
11799.00,0.1937
11798.00,0.1934
11797.00,0.1935
11796.00,0.1938
11795.00,0.1942
11794.00,0.1945
11793.00,0.1946
11792.00,0.1944
11791.00,0.1943
11790.00,0.1943
11789.00,0.1945
11788.00,0.1947
11787.00,0.1949
11786.00,0.1947
11785.00,0.1944
11784.00,0.1940
11783.00,0.1937
11782.00,0.1936
11781.00,0.1938
11780.00,0.1940
11779.00,0.1943
11778.00,0.1944
11777.00,0.1944
11776.00,0.1943
11775.00,0.1943
11774.00,0.1944
11773.00,0.1945
11772.00,0.1946
11771.00,0.1946
11770.00,0.1946
11769.00,0.1945
11768.00,0.1943
11767.00,0.1941
11766.00,0.1939
11765.00,0.1936
11764.00,0.1933
11763.00,0.1931
11762.00,0.1930
11761.00,0.1931
11760.00,0.1934
11759.00,0.1936
11758.00,0.1937
11757.00,0.1937
11756.00,0.1934
11755.00,0.1932
11754.00,0.1931
11753.00,0.1932
11752.00,0.1935
11751.00,0.1939
11750.00,0.1942
11749.00,0.1943
11748.00,0.1942
11747.00,0.1940
11746.00,0.1937
11745.00,0.1937
11744.00,0.1938
11743.00,0.1939
11742.00,0.1941
11741.00,0.1941
11740.00,0.1940
11739.00,0.1937
11738.00,0.1934
11737.00,0.1933
11736.00,0.1934
11735.00,0.1937
11734.00,0.1941
11733.00,0.1945
11732.00,0.1947
11731.00,0.1947
11730.00,0.1946
11729.00,0.1945
11728.00,0.1944
11727.00,0.1945
11726.00,0.1948
11725.00,0.1950
11724.00,0.1952
11723.00,0.1951
11722.00,0.1948
11721.00,0.1945
11720.00,0.1943
11719.00,0.1943
11718.00,0.1946
11717.00,0.1950
11716.00,0.1953
11715.00,0.1955
11714.00,0.1954
11713.00,0.1952
11712.00,0.1949
11711.00,0.1946
11710.00,0.1943
11709.00,0.1941
11708.00,0.1940
11707.00,0.1938
11706.00,0.1936
11705.00,0.1935
11704.00,0.1933
11703.00,0.1931
11702.00,0.1930
11701.00,0.1929
11700.00,0.1929
11699.00,0.1930
11698.00,0.1933
11697.00,0.1937
11696.00,0.1941
11695.00,0.1944
11694.00,0.1946
11693.00,0.1946
11692.00,0.1946
11691.00,0.1946
11690.00,0.1948
11689.00,0.1950
11688.00,0.1953
11687.00,0.1955
11686.00,0.1956
11685.00,0.1955
11684.00,0.1952
11683.00,0.1948
11682.00,0.1944
11681.00,0.1940
11680.00,0.1938
11679.00,0.1938
11678.00,0.1940
11677.00,0.1943
11676.00,0.1945
11675.00,0.1945
11674.00,0.1943
11673.00,0.1940
11672.00,0.1937
11671.00,0.1937
11670.00,0.1939
11669.00,0.1943
11668.00,0.1948
11667.00,0.1951
11666.00,0.1950
11665.00,0.1947
11664.00,0.1942
11663.00,0.1938
11662.00,0.1936
11661.00,0.1937
11660.00,0.1940
11659.00,0.1943
11658.00,0.1945
11657.00,0.1945
11656.00,0.1943
11655.00,0.1942
11654.00,0.1942
11653.00,0.1942
11652.00,0.1942
11651.00,0.1942
11650.00,0.1943
11649.00,0.1944
11648.00,0.1947
11647.00,0.1950
11646.00,0.1953
11645.00,0.1954
11644.00,0.1954
11643.00,0.1952
11642.00,0.1950
11641.00,0.1949
11640.00,0.1949
11639.00,0.1950
11638.00,0.1950
11637.00,0.1949
11636.00,0.1946
11635.00,0.1942
11634.00,0.1938
11633.00,0.1936
11632.00,0.1935
11631.00,0.1936
11630.00,0.1937
11629.00,0.1938
11628.00,0.1939
11627.00,0.1940
11626.00,0.1942
11625.00,0.1944
11624.00,0.1945
11623.00,0.1944
11622.00,0.1943
11621.00,0.1942
11620.00,0.1944
11619.00,0.1949
11618.00,0.1954
11617.00,0.1957
11616.00,0.1955
11615.00,0.1951
11614.00,0.1945
11613.00,0.1942
11612.00,0.1943
11611.00,0.1948
11610.00,0.1954
11609.00,0.1957
11608.00,0.1955
11607.00,0.1950
11606.00,0.1944
11605.00,0.1940
11604.00,0.1939
11603.00,0.1942
11602.00,0.1946
11601.00,0.1949
11600.00,0.1949
11599.00,0.1947
11598.00,0.1945
11597.00,0.1944
11596.00,0.1943
11595.00,0.1943
11594.00,0.1943
11593.00,0.1943
11592.00,0.1942
11591.00,0.1942
11590.00,0.1943
11589.00,0.1946
11588.00,0.1949
11587.00,0.1951
11586.00,0.1951
11585.00,0.1951
11584.00,0.1950
11583.00,0.1950
11582.00,0.1952
11581.00,0.1955
11580.00,0.1957
11579.00,0.1958
11578.00,0.1957
11577.00,0.1955
11576.00,0.1951
11575.00,0.1949
11574.00,0.1949
11573.00,0.1950
11572.00,0.1953
11571.00,0.1955
11570.00,0.1956
11569.00,0.1957
11568.00,0.1957
11567.00,0.1957
11566.00,0.1957
11565.00,0.1956
11564.00,0.1954
11563.00,0.1953
11562.00,0.1952
11561.00,0.1952
11560.00,0.1953
11559.00,0.1954
11558.00,0.1954
11557.00,0.1952
11556.00,0.1950
11555.00,0.1948
11554.00,0.1949
11553.00,0.1951
11552.00,0.1955
11551.00,0.1957
11550.00,0.1958
11549.00,0.1956
11548.00,0.1952
11547.00,0.1948
11546.00,0.1946
11545.00,0.1944
11544.00,0.1944
11543.00,0.1944
11542.00,0.1943
11541.00,0.1942
11540.00,0.1941
11539.00,0.1942
11538.00,0.1943
11537.00,0.1945
11536.00,0.1946
11535.00,0.1947
11534.00,0.1949
11533.00,0.1950
11532.00,0.1952
11531.00,0.1953
11530.00,0.1954
11529.00,0.1954
11528.00,0.1952
11527.00,0.1951
11526.00,0.1951
11525.00,0.1952
11524.00,0.1954
11523.00,0.1956
11522.00,0.1957
11521.00,0.1958
11520.00,0.1958
11519.00,0.1958
11518.00,0.1958
11517.00,0.1958
11516.00,0.1958
11515.00,0.1957
11514.00,0.1956
11513.00,0.1954
11512.00,0.1953
11511.00,0.1952
11510.00,0.1950
11509.00,0.1948
11508.00,0.1946
11507.00,0.1943
11506.00,0.1942
11505.00,0.1942
11504.00,0.1944
11503.00,0.1947
11502.00,0.1948
11501.00,0.1948
11500.00,0.1947
11499.00,0.1944
11498.00,0.1943
11497.00,0.1942
11496.00,0.1942
11495.00,0.1943
11494.00,0.1944
11493.00,0.1944
11492.00,0.1944
11491.00,0.1944
11490.00,0.1944
11489.00,0.1946
11488.00,0.1948
11487.00,0.1950
11486.00,0.1952
11485.00,0.1953
11484.00,0.1954
11483.00,0.1954
11482.00,0.1954
11481.00,0.1953
11480.00,0.1951
11479.00,0.1949
11478.00,0.1947
11477.00,0.1945
11476.00,0.1944
11475.00,0.1942
11474.00,0.1940
11473.00,0.1939
11472.00,0.1939
11471.00,0.1939
11470.00,0.1941
11469.00,0.1942
11468.00,0.1942
11467.00,0.1942
11466.00,0.1943
11465.00,0.1945
11464.00,0.1948
11463.00,0.1951
11462.00,0.1953
11461.00,0.1954
11460.00,0.1953
11459.00,0.1952
11458.00,0.1952
11457.00,0.1953
11456.00,0.1955
11455.00,0.1957
11454.00,0.1957
11453.00,0.1954
11452.00,0.1951
11451.00,0.1947
11450.00,0.1945
11449.00,0.1945
11448.00,0.1946
11447.00,0.1946
11446.00,0.1946
11445.00,0.1946
11444.00,0.1946
11443.00,0.1946
11442.00,0.1947
11441.00,0.1948
11440.00,0.1950
11439.00,0.1951
11438.00,0.1952
11437.00,0.1952
11436.00,0.1952
11435.00,0.1951
11434.00,0.1950
11433.00,0.1949
11432.00,0.1948
11431.00,0.1948
11430.00,0.1948
11429.00,0.1949
11428.00,0.1950
11427.00,0.1951
11426.00,0.1952
11425.00,0.1952
11424.00,0.1951
11423.00,0.1951
11422.00,0.1951
11421.00,0.1951
11420.00,0.1952
11419.00,0.1952
11418.00,0.1952
11417.00,0.1950
11416.00,0.1947
11415.00,0.1944
11414.00,0.1944
11413.00,0.1947
11412.00,0.1951
11411.00,0.1956
11410.00,0.1959
11409.00,0.1958
11408.00,0.1954
11407.00,0.1950
11406.00,0.1948
11405.00,0.1948
11404.00,0.1951
11403.00,0.1955
11402.00,0.1957
11401.00,0.1956
11400.00,0.1955
11399.00,0.1954
11398.00,0.1953
11397.00,0.1955
11396.00,0.1957
11395.00,0.1958
11394.00,0.1958
11393.00,0.1957
11392.00,0.1956
11391.00,0.1955
11390.00,0.1953
11389.00,0.1951
11388.00,0.1948
11387.00,0.1946
11386.00,0.1945
11385.00,0.1946
11384.00,0.1948
11383.00,0.1951
11382.00,0.1954
11381.00,0.1954
11380.00,0.1952
11379.00,0.1949
11378.00,0.1946
11377.00,0.1946
11376.00,0.1947
11375.00,0.1949
11374.00,0.1951
11373.00,0.1951
11372.00,0.1949
11371.00,0.1947
11370.00,0.1946
11369.00,0.1947
11368.00,0.1951
11367.00,0.1956
11366.00,0.1959
11365.00,0.1961
11364.00,0.1959
11363.00,0.1956
11362.00,0.1952
11361.00,0.1951
11360.00,0.1951
11359.00,0.1951
11358.00,0.1952
11357.00,0.1951
11356.00,0.1950
11355.00,0.1949
11354.00,0.1948
11353.00,0.1947
11352.00,0.1948
11351.00,0.1949
11350.00,0.1950
11349.00,0.1952
11348.00,0.1953
11347.00,0.1953
11346.00,0.1952
11345.00,0.1950
11344.00,0.1949
11343.00,0.1949
11342.00,0.1950
11341.00,0.1951
11340.00,0.1952
11339.00,0.1951
11338.00,0.1949
11337.00,0.1947
11336.00,0.1945
11335.00,0.1945
11334.00,0.1946
11333.00,0.1948
11332.00,0.1949
11331.00,0.1949
11330.00,0.1949
11329.00,0.1948
11328.00,0.1949
11327.00,0.1950
11326.00,0.1952
11325.00,0.1955
11324.00,0.1957
11323.00,0.1959
11322.00,0.1961
11321.00,0.1962
11320.00,0.1963
11319.00,0.1963
11318.00,0.1964
11317.00,0.1964
11316.00,0.1963
11315.00,0.1961
11314.00,0.1959
11313.00,0.1956
11312.00,0.1954
11311.00,0.1953
11310.00,0.1953
11309.00,0.1952
11308.00,0.1951
11307.00,0.1950
11306.00,0.1949
11305.00,0.1947
11304.00,0.1947
11303.00,0.1948
11302.00,0.1949
11301.00,0.1951
11300.00,0.1952
11299.00,0.1954
11298.00,0.1955
11297.00,0.1956
11296.00,0.1959
11295.00,0.1961
11294.00,0.1963
11293.00,0.1965
11292.00,0.1965
11291.00,0.1965
11290.00,0.1965
11289.00,0.1964
11288.00,0.1965
11287.00,0.1966
11286.00,0.1966
11285.00,0.1964
11284.00,0.1962
11283.00,0.1959
11282.00,0.1958
11281.00,0.1959
11280.00,0.1961
11279.00,0.1964
11278.00,0.1966
11277.00,0.1965
11276.00,0.1964
11275.00,0.1962
11274.00,0.1961
11273.00,0.1962
11272.00,0.1963
11271.00,0.1964
11270.00,0.1964
11269.00,0.1964
11268.00,0.1962
11267.00,0.1961
11266.00,0.1959
11265.00,0.1957
11264.00,0.1955
11263.00,0.1952
11262.00,0.1950
11261.00,0.1950
11260.00,0.1950
11259.00,0.1951
11258.00,0.1951
11257.00,0.1950
11256.00,0.1948
11255.00,0.1946
11254.00,0.1945
11253.00,0.1946
11252.00,0.1948
11251.00,0.1951
11250.00,0.1954
11249.00,0.1956
11248.00,0.1958
11247.00,0.1960
11246.00,0.1962
11245.00,0.1963
11244.00,0.1965
11243.00,0.1966
11242.00,0.1968
11241.00,0.1969
11240.00,0.1970
11239.00,0.1970
11238.00,0.1968
11237.00,0.1965
11236.00,0.1961
11235.00,0.1956
11234.00,0.1954
11233.00,0.1952
11232.00,0.1953
11231.00,0.1954
11230.00,0.1956
11229.00,0.1959
11228.00,0.1961
11227.00,0.1963
11226.00,0.1965
11225.00,0.1965
11224.00,0.1964
11223.00,0.1964
11222.00,0.1965
11221.00,0.1966
11220.00,0.1968
11219.00,0.1968
11218.00,0.1966
11217.00,0.1963
11216.00,0.1960
11215.00,0.1958
11214.00,0.1958
11213.00,0.1959
11212.00,0.1962
11211.00,0.1964
11210.00,0.1965
11209.00,0.1966
11208.00,0.1965
11207.00,0.1964
11206.00,0.1964
11205.00,0.1964
11204.00,0.1964
11203.00,0.1965
11202.00,0.1965
11201.00,0.1966
11200.00,0.1965
11199.00,0.1963
11198.00,0.1959
11197.00,0.1956
11196.00,0.1954
11195.00,0.1953
11194.00,0.1953
11193.00,0.1953
11192.00,0.1952
11191.00,0.1951
11190.00,0.1950
11189.00,0.1951
11188.00,0.1953
11187.00,0.1956
11186.00,0.1959
11185.00,0.1960
11184.00,0.1959
11183.00,0.1959
11182.00,0.1959
11181.00,0.1960
11180.00,0.1963
11179.00,0.1964
11178.00,0.1963
11177.00,0.1960
11176.00,0.1956
11175.00,0.1952
11174.00,0.1950
11173.00,0.1951
11172.00,0.1953
11171.00,0.1956
11170.00,0.1956
11169.00,0.1956
11168.00,0.1955
11167.00,0.1955
11166.00,0.1957
11165.00,0.1960
11164.00,0.1964
11163.00,0.1965
11162.00,0.1965
11161.00,0.1963
11160.00,0.1961
11159.00,0.1961
11158.00,0.1961
11157.00,0.1961
11156.00,0.1959
11155.00,0.1957
11154.00,0.1954
11153.00,0.1952
11152.00,0.1953
11151.00,0.1956
11150.00,0.1959
11149.00,0.1962
11148.00,0.1964
11147.00,0.1964
11146.00,0.1965
11145.00,0.1966
11144.00,0.1967
11143.00,0.1968
11142.00,0.1968
11141.00,0.1966
11140.00,0.1965
11139.00,0.1964
11138.00,0.1964
11137.00,0.1963
11136.00,0.1962
11135.00,0.1960
11134.00,0.1958
11133.00,0.1956
11132.00,0.1955
11131.00,0.1957
11130.00,0.1959
11129.00,0.1960
11128.00,0.1961
11127.00,0.1960
11126.00,0.1958
11125.00,0.1957
11124.00,0.1956
11123.00,0.1956
11122.00,0.1957
11121.00,0.1957
11120.00,0.1958
11119.00,0.1958
11118.00,0.1960
11117.00,0.1962
11116.00,0.1964
11115.00,0.1966
11114.00,0.1967
11113.00,0.1966
11112.00,0.1965
11111.00,0.1964
11110.00,0.1964
11109.00,0.1964
11108.00,0.1964
11107.00,0.1964
11106.00,0.1963
11105.00,0.1962
11104.00,0.1961
11103.00,0.1960
11102.00,0.1960
11101.00,0.1960
11100.00,0.1961
11099.00,0.1963
11098.00,0.1965
11097.00,0.1968
11096.00,0.1969
11095.00,0.1969
11094.00,0.1967
11093.00,0.1963
11092.00,0.1960
11091.00,0.1958
11090.00,0.1958
11089.00,0.1960
11088.00,0.1962
11087.00,0.1962
11086.00,0.1961
11085.00,0.1957
11084.00,0.1954
11083.00,0.1952
11082.00,0.1953
11081.00,0.1955
11080.00,0.1957
11079.00,0.1959
11078.00,0.1959
11077.00,0.1958
11076.00,0.1956
11075.00,0.1955
11074.00,0.1955
11073.00,0.1957
11072.00,0.1960
11071.00,0.1962
11070.00,0.1963
11069.00,0.1963
11068.00,0.1961
11067.00,0.1960
11066.00,0.1959
11065.00,0.1959
11064.00,0.1959
11063.00,0.1960
11062.00,0.1961
11061.00,0.1963
11060.00,0.1965
11059.00,0.1967
11058.00,0.1969
11057.00,0.1970
11056.00,0.1972
11055.00,0.1973
11054.00,0.1973
11053.00,0.1974
11052.00,0.1974
11051.00,0.1973
11050.00,0.1971
11049.00,0.1969
11048.00,0.1966
11047.00,0.1963
11046.00,0.1961
11045.00,0.1959
11044.00,0.1957
11043.00,0.1955
11042.00,0.1954
11041.00,0.1953
11040.00,0.1953
11039.00,0.1953
11038.00,0.1954
11037.00,0.1954
11036.00,0.1954
11035.00,0.1954
11034.00,0.1954
11033.00,0.1955
11032.00,0.1957
11031.00,0.1960
11030.00,0.1963
11029.00,0.1967
11028.00,0.1970
11027.00,0.1971
11026.00,0.1971
11025.00,0.1969
11024.00,0.1967
11023.00,0.1966
11022.00,0.1967
11021.00,0.1968
11020.00,0.1970
11019.00,0.1970
11018.00,0.1968
11017.00,0.1966
11016.00,0.1963
11015.00,0.1963
11014.00,0.1965
11013.00,0.1969
11012.00,0.1973
11011.00,0.1977
11010.00,0.1979
11009.00,0.1978
11008.00,0.1976
11007.00,0.1973
11006.00,0.1970
11005.00,0.1968
11004.00,0.1966
11003.00,0.1966
11002.00,0.1965
11001.00,0.1964
11000.00,0.1961
10999.00,0.1958
10998.00,0.1956
10997.00,0.1956
10996.00,0.1958
10995.00,0.1961
10994.00,0.1964
10993.00,0.1966
10992.00,0.1967
10991.00,0.1968
10990.00,0.1968
10989.00,0.1968
10988.00,0.1968
10987.00,0.1967
10986.00,0.1966
10985.00,0.1965
10984.00,0.1965
10983.00,0.1966
10982.00,0.1966
10981.00,0.1965
10980.00,0.1964
10979.00,0.1963
10978.00,0.1962
10977.00,0.1963
10976.00,0.1964
10975.00,0.1965
10974.00,0.1966
10973.00,0.1967
10972.00,0.1968
10971.00,0.1968
10970.00,0.1969
10969.00,0.1968
10968.00,0.1967
10967.00,0.1964
10966.00,0.1963
10965.00,0.1962
10964.00,0.1962
10963.00,0.1964
10962.00,0.1965
10961.00,0.1966
10960.00,0.1966
10959.00,0.1965
10958.00,0.1964
10957.00,0.1964
10956.00,0.1966
10955.00,0.1968
10954.00,0.1971
10953.00,0.1971
10952.00,0.1971
10951.00,0.1969
10950.00,0.1967
10949.00,0.1967
10948.00,0.1969
10947.00,0.1971
10946.00,0.1973
10945.00,0.1974
10944.00,0.1973
10943.00,0.1971
10942.00,0.1969
10941.00,0.1967
10940.00,0.1967
10939.00,0.1967
10938.00,0.1968
10937.00,0.1967
10936.00,0.1964
10935.00,0.1961
10934.00,0.1958
10933.00,0.1957
10932.00,0.1958
10931.00,0.1961
10930.00,0.1963
10929.00,0.1963
10928.00,0.1962
10927.00,0.1961
10926.00,0.1961
10925.00,0.1963
10924.00,0.1966
10923.00,0.1968
10922.00,0.1970
10921.00,0.1970
10920.00,0.1970
10919.00,0.1970
10918.00,0.1970
10917.00,0.1970
10916.00,0.1970
10915.00,0.1969
10914.00,0.1968
10913.00,0.1968
10912.00,0.1969
10911.00,0.1972
10910.00,0.1974
10909.00,0.1975
10908.00,0.1975
10907.00,0.1974
10906.00,0.1973
10905.00,0.1972
10904.00,0.1973
10903.00,0.1973
10902.00,0.1973
10901.00,0.1970
10900.00,0.1966
10899.00,0.1960
10898.00,0.1955
10897.00,0.1952
10896.00,0.1953
10895.00,0.1955
10894.00,0.1959
10893.00,0.1961
10892.00,0.1962
10891.00,0.1961
10890.00,0.1960
10889.00,0.1961
10888.00,0.1963
10887.00,0.1965
10886.00,0.1966
10885.00,0.1965
10884.00,0.1963
10883.00,0.1960
10882.00,0.1958
10881.00,0.1958
10880.00,0.1958
10879.00,0.1958
10878.00,0.1958
10877.00,0.1957
10876.00,0.1956
10875.00,0.1957
10874.00,0.1958
10873.00,0.1960
10872.00,0.1962
10871.00,0.1964
10870.00,0.1964
10869.00,0.1964
10868.00,0.1964
10867.00,0.1964
10866.00,0.1965
10865.00,0.1966
10864.00,0.1967
10863.00,0.1967
10862.00,0.1967
10861.00,0.1967
10860.00,0.1968
10859.00,0.1969
10858.00,0.1970
10857.00,0.1970
10856.00,0.1969
10855.00,0.1968
10854.00,0.1966
10853.00,0.1966
10852.00,0.1966
10851.00,0.1966
10850.00,0.1967
10849.00,0.1967
10848.00,0.1967
10847.00,0.1968
10846.00,0.1968
10845.00,0.1969
10844.00,0.1969
10843.00,0.1968
10842.00,0.1966
10841.00,0.1965
10840.00,0.1965
10839.00,0.1966
10838.00,0.1968
10837.00,0.1968
10836.00,0.1966
10835.00,0.1963
10834.00,0.1959
10833.00,0.1956
10832.00,0.1955
10831.00,0.1955
10830.00,0.1957
10829.00,0.1958
10828.00,0.1957
10827.00,0.1955
10826.00,0.1952
10825.00,0.1950
10824.00,0.1949
10823.00,0.1950
10822.00,0.1952
10821.00,0.1954
10820.00,0.1956
10819.00,0.1958
10818.00,0.1960
10817.00,0.1961
10816.00,0.1963
10815.00,0.1964
10814.00,0.1965
10813.00,0.1966
10812.00,0.1967
10811.00,0.1969
10810.00,0.1970
10809.00,0.1971
10808.00,0.1970
10807.00,0.1969
10806.00,0.1967
10805.00,0.1965
10804.00,0.1965
10803.00,0.1966
10802.00,0.1967
10801.00,0.1967
10800.00,0.1966
10799.00,0.1965
10798.00,0.1963
10797.00,0.1963
10796.00,0.1963
10795.00,0.1963
10794.00,0.1963
10793.00,0.1962
10792.00,0.1961
10791.00,0.1959
10790.00,0.1959
10789.00,0.1958
10788.00,0.1958
10787.00,0.1958
10786.00,0.1958
10785.00,0.1959
10784.00,0.1961
10783.00,0.1963
10782.00,0.1965
10781.00,0.1967
10780.00,0.1967
10779.00,0.1967
10778.00,0.1966
10777.00,0.1966
10776.00,0.1966
10775.00,0.1967
10774.00,0.1967
10773.00,0.1966
10772.00,0.1963
10771.00,0.1960
10770.00,0.1959
10769.00,0.1959
10768.00,0.1961
10767.00,0.1963
10766.00,0.1966
10765.00,0.1966
10764.00,0.1966
10763.00,0.1965
10762.00,0.1965
10761.00,0.1964
10760.00,0.1964
10759.00,0.1963
10758.00,0.1962
10757.00,0.1960
10756.00,0.1958
10755.00,0.1956
10754.00,0.1956
10753.00,0.1955
10752.00,0.1956
10751.00,0.1957
10750.00,0.1957
10749.00,0.1958
10748.00,0.1958
10747.00,0.1959
10746.00,0.1961
10745.00,0.1965
10744.00,0.1969
10743.00,0.1971
10742.00,0.1971
10741.00,0.1969
10740.00,0.1966
10739.00,0.1966
10738.00,0.1967
10737.00,0.1970
10736.00,0.1973
10735.00,0.1972
10734.00,0.1969
10733.00,0.1965
10732.00,0.1963
10731.00,0.1963
10730.00,0.1965
10729.00,0.1967
10728.00,0.1968
10727.00,0.1967
10726.00,0.1964
10725.00,0.1960
10724.00,0.1958
10723.00,0.1957
10722.00,0.1957
10721.00,0.1957
10720.00,0.1958
10719.00,0.1959
10718.00,0.1961
10717.00,0.1962
10716.00,0.1962
10715.00,0.1961
10714.00,0.1961
10713.00,0.1962
10712.00,0.1963
10711.00,0.1965
10710.00,0.1965
10709.00,0.1965
10708.00,0.1964
10707.00,0.1963
10706.00,0.1962
10705.00,0.1963
10704.00,0.1965
10703.00,0.1967
10702.00,0.1968
10701.00,0.1968
10700.00,0.1969
10699.00,0.1969
10698.00,0.1969
10697.00,0.1969
10696.00,0.1967
10695.00,0.1964
10694.00,0.1961
10693.00,0.1958
10692.00,0.1957
10691.00,0.1957
10690.00,0.1957
10689.00,0.1958
10688.00,0.1960
10687.00,0.1961
10686.00,0.1962
10685.00,0.1963
10684.00,0.1963
10683.00,0.1963
10682.00,0.1962
10681.00,0.1962
10680.00,0.1963
10679.00,0.1963
10678.00,0.1962
10677.00,0.1961
10676.00,0.1959
10675.00,0.1957
10674.00,0.1957
10673.00,0.1958
10672.00,0.1960
10671.00,0.1963
10670.00,0.1964
10669.00,0.1964
10668.00,0.1964
10667.00,0.1963
10666.00,0.1964
10665.00,0.1964
10664.00,0.1964
10663.00,0.1963
10662.00,0.1961
10661.00,0.1960
10660.00,0.1960
10659.00,0.1960
10658.00,0.1961
10657.00,0.1963
10656.00,0.1963
10655.00,0.1963
10654.00,0.1962
10653.00,0.1962
10652.00,0.1962
10651.00,0.1964
10650.00,0.1965
10649.00,0.1967
10648.00,0.1968
10647.00,0.1969
10646.00,0.1970
10645.00,0.1971
10644.00,0.1971
10643.00,0.1972
10642.00,0.1971
10641.00,0.1971
10640.00,0.1970
10639.00,0.1969
10638.00,0.1970
10637.00,0.1971
10636.00,0.1973
10635.00,0.1975
10634.00,0.1975
10633.00,0.1975
10632.00,0.1975
10631.00,0.1974
10630.00,0.1973
10629.00,0.1973
10628.00,0.1973
10627.00,0.1973
10626.00,0.1972
10625.00,0.1971
10624.00,0.1970
10623.00,0.1970
10622.00,0.1970
10621.00,0.1970
10620.00,0.1970
10619.00,0.1970
10618.00,0.1971
10617.00,0.1971
10616.00,0.1972
10615.00,0.1972
10614.00,0.1971
10613.00,0.1971
10612.00,0.1971
10611.00,0.1972
10610.00,0.1973
10609.00,0.1975
10608.00,0.1975
10607.00,0.1975
10606.00,0.1976
10605.00,0.1976
10604.00,0.1977
10603.00,0.1977
10602.00,0.1975
10601.00,0.1971
10600.00,0.1967
10599.00,0.1965
10598.00,0.1966
10597.00,0.1969
10596.00,0.1972
10595.00,0.1974
10594.00,0.1974
10593.00,0.1973
10592.00,0.1972
10591.00,0.1973
10590.00,0.1976
10589.00,0.1979
10588.00,0.1981
10587.00,0.1982
10586.00,0.1980
10585.00,0.1978
10584.00,0.1974
10583.00,0.1972
10582.00,0.1970
10581.00,0.1970
10580.00,0.1972
10579.00,0.1976
10578.00,0.1979
10577.00,0.1980
10576.00,0.1979
10575.00,0.1976
10574.00,0.1974
10573.00,0.1974
10572.00,0.1976
10571.00,0.1978
10570.00,0.1980
10569.00,0.1980
10568.00,0.1979
10567.00,0.1977
10566.00,0.1977
10565.00,0.1978
10564.00,0.1980
10563.00,0.1982
10562.00,0.1984
10561.00,0.1985
10560.00,0.1985
10559.00,0.1985
10558.00,0.1985
10557.00,0.1984
10556.00,0.1983
10555.00,0.1983
10554.00,0.1983
10553.00,0.1982
10552.00,0.1982
10551.00,0.1982
10550.00,0.1982
10549.00,0.1983
10548.00,0.1985
10547.00,0.1987
10546.00,0.1987
10545.00,0.1986
10544.00,0.1985
10543.00,0.1984
10542.00,0.1984
10541.00,0.1985
10540.00,0.1986
10539.00,0.1986
10538.00,0.1985
10537.00,0.1984
10536.00,0.1984
10535.00,0.1984
10534.00,0.1984
10533.00,0.1985
10532.00,0.1986
10531.00,0.1986
10530.00,0.1987
10529.00,0.1987
10528.00,0.1987
10527.00,0.1988
10526.00,0.1988
10525.00,0.1989
10524.00,0.1990
10523.00,0.1991
10522.00,0.1991
10521.00,0.1992
10520.00,0.1993
10519.00,0.1994
10518.00,0.1995
10517.00,0.1996
10516.00,0.1996
10515.00,0.1995
10514.00,0.1994
10513.00,0.1994
10512.00,0.1994
10511.00,0.1994
10510.00,0.1995
10509.00,0.1994
10508.00,0.1994
10507.00,0.1995
10506.00,0.1996
10505.00,0.1998
10504.00,0.2000
10503.00,0.2001
10502.00,0.2001
10501.00,0.2000
10500.00,0.2000
10499.00,0.2000
10498.00,0.2001
10497.00,0.2001
10496.00,0.2000
10495.00,0.1998
10494.00,0.1997
10493.00,0.1997
10492.00,0.1998
10491.00,0.2001
10490.00,0.2004
10489.00,0.2006
10488.00,0.2005
10487.00,0.2004
10486.00,0.2002
10485.00,0.2002
10484.00,0.2002
10483.00,0.2004
10482.00,0.2005
10481.00,0.2005
10480.00,0.2003
10479.00,0.2001
10478.00,0.2000
10477.00,0.2000
10476.00,0.2001
10475.00,0.2002
10474.00,0.2002
10473.00,0.2002
10472.00,0.2002
10471.00,0.2002
10470.00,0.2002
10469.00,0.2004
10468.00,0.2005
10467.00,0.2005
10466.00,0.2004
10465.00,0.2003
10464.00,0.2001
10463.00,0.2001
10462.00,0.2001
10461.00,0.2002
10460.00,0.2003
10459.00,0.2002
10458.00,0.2001
10457.00,0.2000
10456.00,0.1999
10455.00,0.2000
10454.00,0.2002
10453.00,0.2005
10452.00,0.2007
10451.00,0.2006
10450.00,0.2004
10449.00,0.2002
10448.00,0.2003
10447.00,0.2005
10446.00,0.2008
10445.00,0.2011
10444.00,0.2011
10443.00,0.2009
10442.00,0.2008
10441.00,0.2008
10440.00,0.2010
10439.00,0.2013
10438.00,0.2016
10437.00,0.2017
10436.00,0.2015
10435.00,0.2013
10434.00,0.2012
10433.00,0.2012
10432.00,0.2012
10431.00,0.2013
10430.00,0.2014
10429.00,0.2015
10428.00,0.2016
10427.00,0.2018
10426.00,0.2018
10425.00,0.2018
10424.00,0.2016
10423.00,0.2014
10422.00,0.2013
10421.00,0.2012
10420.00,0.2012
10419.00,0.2012
10418.00,0.2011
10417.00,0.2009
10416.00,0.2006
10415.00,0.2006
10414.00,0.2007
10413.00,0.2011
10412.00,0.2016
10411.00,0.2020
10410.00,0.2022
10409.00,0.2023
10408.00,0.2022
10407.00,0.2021
10406.00,0.2020
10405.00,0.2021
10404.00,0.2022
10403.00,0.2023
10402.00,0.2023
10401.00,0.2021
10400.00,0.2019
10399.00,0.2017
10398.00,0.2017
10397.00,0.2019
10396.00,0.2023
10395.00,0.2027
10394.00,0.2028
10393.00,0.2027
10392.00,0.2025
10391.00,0.2023
10390.00,0.2023
10389.00,0.2024
10388.00,0.2025
10387.00,0.2026
10386.00,0.2026
10385.00,0.2025
10384.00,0.2024
10383.00,0.2023
10382.00,0.2022
10381.00,0.2021
10380.00,0.2020
10379.00,0.2020
10378.00,0.2020
10377.00,0.2021
10376.00,0.2022
10375.00,0.2023
10374.00,0.2023
10373.00,0.2023
10372.00,0.2023
10371.00,0.2024
10370.00,0.2025
10369.00,0.2026
10368.00,0.2026
10367.00,0.2025
10366.00,0.2024
10365.00,0.2023
10364.00,0.2022
10363.00,0.2023
10362.00,0.2023
10361.00,0.2024
10360.00,0.2026
10359.00,0.2027
10358.00,0.2028
10357.00,0.2030
10356.00,0.2031
10355.00,0.2033
10354.00,0.2034
10353.00,0.2034
10352.00,0.2034
10351.00,0.2034
10350.00,0.2035
10349.00,0.2036
10348.00,0.2037
10347.00,0.2037
10346.00,0.2036
10345.00,0.2036
10344.00,0.2037
10343.00,0.2039
10342.00,0.2040
10341.00,0.2041
10340.00,0.2041
10339.00,0.2040
10338.00,0.2040
10337.00,0.2040
10336.00,0.2041
10335.00,0.2041
10334.00,0.2042
10333.00,0.2041
10332.00,0.2040
10331.00,0.2039
10330.00,0.2038
10329.00,0.2038
10328.00,0.2038
10327.00,0.2038
10326.00,0.2040
10325.00,0.2041
10324.00,0.2042
10323.00,0.2042
10322.00,0.2041
10321.00,0.2041
10320.00,0.2041
10319.00,0.2042
10318.00,0.2043
10317.00,0.2043
10316.00,0.2042
10315.00,0.2041
10314.00,0.2039
10313.00,0.2037
10312.00,0.2037
10311.00,0.2038
10310.00,0.2041
10309.00,0.2044
10308.00,0.2046
10307.00,0.2047
10306.00,0.2046
10305.00,0.2045
10304.00,0.2045
10303.00,0.2046
10302.00,0.2048
10301.00,0.2050
10300.00,0.2050
10299.00,0.2048
10298.00,0.2045
10297.00,0.2041
10296.00,0.2039
10295.00,0.2039
10294.00,0.2040
10293.00,0.2042
10292.00,0.2044
10291.00,0.2044
10290.00,0.2044
10289.00,0.2045
10288.00,0.2046
10287.00,0.2048
10286.00,0.2050
10285.00,0.2052
10284.00,0.2052
10283.00,0.2051
10282.00,0.2051
10281.00,0.2050
10280.00,0.2051
10279.00,0.2052
10278.00,0.2054
10277.00,0.2055
10276.00,0.2055
10275.00,0.2056
10274.00,0.2057
10273.00,0.2058
10272.00,0.2058
10271.00,0.2059
10270.00,0.2058
10269.00,0.2058
10268.00,0.2058
10267.00,0.2058
10266.00,0.2059
10265.00,0.2059
10264.00,0.2059
10263.00,0.2059
10262.00,0.2059
10261.00,0.2059
10260.00,0.2059
10259.00,0.2059
10258.00,0.2058
10257.00,0.2057
10256.00,0.2057
10255.00,0.2057
10254.00,0.2057
10253.00,0.2058
10252.00,0.2059
10251.00,0.2059
10250.00,0.2059
10249.00,0.2060
10248.00,0.2061
10247.00,0.2063
10246.00,0.2065
10245.00,0.2065
10244.00,0.2064
10243.00,0.2063
10242.00,0.2063
10241.00,0.2064
10240.00,0.2066
10239.00,0.2066
10238.00,0.2066
10237.00,0.2064
10236.00,0.2063
10235.00,0.2063
10234.00,0.2064
10233.00,0.2066
10232.00,0.2066
10231.00,0.2066
10230.00,0.2065
10229.00,0.2064
10228.00,0.2064
10227.00,0.2066
10226.00,0.2069
10225.00,0.2071
10224.00,0.2071
10223.00,0.2070
10222.00,0.2069
10221.00,0.2068
10220.00,0.2068
10219.00,0.2069
10218.00,0.2071
10217.00,0.2072
10216.00,0.2071
10215.00,0.2070
10214.00,0.2069
10213.00,0.2068
10212.00,0.2069
10211.00,0.2070
10210.00,0.2070
10209.00,0.2071
10208.00,0.2070
10207.00,0.2069
10206.00,0.2068
10205.00,0.2068
10204.00,0.2068
10203.00,0.2069
10202.00,0.2069
10201.00,0.2070
10200.00,0.2071
10199.00,0.2072
10198.00,0.2073
10197.00,0.2074
10196.00,0.2075
10195.00,0.2076
10194.00,0.2077
10193.00,0.2077
10192.00,0.2077
10191.00,0.2076
10190.00,0.2077
10189.00,0.2078
10188.00,0.2079
10187.00,0.2079
10186.00,0.2078
10185.00,0.2076
10184.00,0.2075
10183.00,0.2074
10182.00,0.2075
10181.00,0.2076
10180.00,0.2076
10179.00,0.2076
10178.00,0.2076
10177.00,0.2076
10176.00,0.2076
10175.00,0.2077
10174.00,0.2078
10173.00,0.2078
10172.00,0.2077
10171.00,0.2075
10170.00,0.2074
10169.00,0.2073
10168.00,0.2074
10167.00,0.2076
10166.00,0.2078
10165.00,0.2079
10164.00,0.2080
10163.00,0.2081
10162.00,0.2082
10161.00,0.2083
10160.00,0.2084
10159.00,0.2084
10158.00,0.2084
10157.00,0.2082
10156.00,0.2081
10155.00,0.2079
10154.00,0.2078
10153.00,0.2077
10152.00,0.2076
10151.00,0.2075
10150.00,0.2077
10149.00,0.2079
10148.00,0.2081
10147.00,0.2083
10146.00,0.2083
10145.00,0.2081
10144.00,0.2080
10143.00,0.2079
10142.00,0.2079
10141.00,0.2080
10140.00,0.2080
10139.00,0.2079
10138.00,0.2078
10137.00,0.2078
10136.00,0.2078
10135.00,0.2080
10134.00,0.2082
10133.00,0.2083
10132.00,0.2084
10131.00,0.2084
10130.00,0.2084
10129.00,0.2084
10128.00,0.2084
10127.00,0.2085
10126.00,0.2085
10125.00,0.2086
10124.00,0.2085
10123.00,0.2084
10122.00,0.2084
10121.00,0.2084
10120.00,0.2085
10119.00,0.2086
10118.00,0.2088
10117.00,0.2090
10116.00,0.2091
10115.00,0.2091
10114.00,0.2090
10113.00,0.2088
10112.00,0.2086
10111.00,0.2085
10110.00,0.2085
10109.00,0.2087
10108.00,0.2088
10107.00,0.2088
10106.00,0.2087
10105.00,0.2085
10104.00,0.2084
10103.00,0.2084
10102.00,0.2086
10101.00,0.2087
10100.00,0.2089
10099.00,0.2089
10098.00,0.2089
10097.00,0.2088
10096.00,0.2087
10095.00,0.2087
10094.00,0.2087
10093.00,0.2087
10092.00,0.2089
10091.00,0.2090
10090.00,0.2092
10089.00,0.2093
10088.00,0.2092
10087.00,0.2091
10086.00,0.2089
10085.00,0.2089
10084.00,0.2088
10083.00,0.2088
10082.00,0.2087
10081.00,0.2086
10080.00,0.2083
10079.00,0.2082
10078.00,0.2083
10077.00,0.2085
10076.00,0.2087
10075.00,0.2088
10074.00,0.2088
10073.00,0.2087
10072.00,0.2087
10071.00,0.2087
10070.00,0.2088
10069.00,0.2087
10068.00,0.2085
10067.00,0.2082
10066.00,0.2080
10065.00,0.2080
10064.00,0.2081
10063.00,0.2083
10062.00,0.2085
10061.00,0.2086
10060.00,0.2087
10059.00,0.2089
10058.00,0.2090
10057.00,0.2090
10056.00,0.2090
10055.00,0.2089
10054.00,0.2088
10053.00,0.2087
10052.00,0.2086
10051.00,0.2085
10050.00,0.2085
10049.00,0.2085
10048.00,0.2085
10047.00,0.2085
10046.00,0.2086
10045.00,0.2087
10044.00,0.2087
10043.00,0.2086
10042.00,0.2086
10041.00,0.2086
10040.00,0.2086
10039.00,0.2086
10038.00,0.2086
10037.00,0.2085
10036.00,0.2084
10035.00,0.2084
10034.00,0.2084
10033.00,0.2084
10032.00,0.2085
10031.00,0.2085
10030.00,0.2084
10029.00,0.2082
10028.00,0.2081
10027.00,0.2080
10026.00,0.2080
10025.00,0.2082
10024.00,0.2084
10023.00,0.2084
10022.00,0.2084
10021.00,0.2084
10020.00,0.2084
10019.00,0.2084
10018.00,0.2085
10017.00,0.2086
10016.00,0.2086
10015.00,0.2086
10014.00,0.2085
10013.00,0.2084
10012.00,0.2085
10011.00,0.2085
10010.00,0.2086
10009.00,0.2086
10008.00,0.2086
10007.00,0.2086
10006.00,0.2085
10005.00,0.2085
10004.00,0.2085
10003.00,0.2085
10002.00,0.2085
10001.00,0.2085
10000.00,0.2085
9999.00,0.2085
9998.00,0.2086
9997.00,0.2087
9996.00,0.2088
9995.00,0.2089
9994.00,0.2088
9993.00,0.2088
9992.00,0.2087
9991.00,0.2087
9990.00,0.2086
9989.00,0.2086
9988.00,0.2085
9987.00,0.2084
9986.00,0.2084
9985.00,0.2083
9984.00,0.2083
9983.00,0.2084
9982.00,0.2084
9981.00,0.2084
9980.00,0.2084
9979.00,0.2085
9978.00,0.2085
9977.00,0.2085
9976.00,0.2085
9975.00,0.2085
9974.00,0.2085
9973.00,0.2085
9972.00,0.2086
9971.00,0.2086
9970.00,0.2087
9969.00,0.2087
9968.00,0.2086
9967.00,0.2086
9966.00,0.2086
9965.00,0.2087
9964.00,0.2087
9963.00,0.2088
9962.00,0.2088
9961.00,0.2087
9960.00,0.2087
9959.00,0.2086
9958.00,0.2086
9957.00,0.2086
9956.00,0.2087
9955.00,0.2089
9954.00,0.2090
9953.00,0.2090
9952.00,0.2089
9951.00,0.2088
9950.00,0.2088
9949.00,0.2089
9948.00,0.2090
9947.00,0.2091
9946.00,0.2089
9945.00,0.2086
9944.00,0.2083
9943.00,0.2082
9942.00,0.2083
9941.00,0.2084
9940.00,0.2085
9939.00,0.2085
9938.00,0.2084
9937.00,0.2084
9936.00,0.2084
9935.00,0.2085
9934.00,0.2085
9933.00,0.2084
9932.00,0.2082
9931.00,0.2081
9930.00,0.2081
9929.00,0.2081
9928.00,0.2082
9927.00,0.2082
9926.00,0.2083
9925.00,0.2083
9924.00,0.2084
9923.00,0.2086
9922.00,0.2087
9921.00,0.2088
9920.00,0.2088
9919.00,0.2087
9918.00,0.2086
9917.00,0.2085
9916.00,0.2084
9915.00,0.2083
9914.00,0.2083
9913.00,0.2083
9912.00,0.2082
9911.00,0.2082
9910.00,0.2081
9909.00,0.2080
9908.00,0.2081
9907.00,0.2082
9906.00,0.2083
9905.00,0.2085
9904.00,0.2085
9903.00,0.2085
9902.00,0.2085
9901.00,0.2084
9900.00,0.2085
9899.00,0.2086
9898.00,0.2086
9897.00,0.2086
9896.00,0.2084
9895.00,0.2082
9894.00,0.2081
9893.00,0.2082
9892.00,0.2083
9891.00,0.2084
9890.00,0.2084
9889.00,0.2084
9888.00,0.2084
9887.00,0.2084
9886.00,0.2085
9885.00,0.2086
9884.00,0.2086
9883.00,0.2085
9882.00,0.2084
9881.00,0.2083
9880.00,0.2083
9879.00,0.2083
9878.00,0.2081
9877.00,0.2080
9876.00,0.2079
9875.00,0.2078
9874.00,0.2079
9873.00,0.2080
9872.00,0.2080
9871.00,0.2080
9870.00,0.2081
9869.00,0.2082
9868.00,0.2084
9867.00,0.2085
9866.00,0.2084
9865.00,0.2082
9864.00,0.2080
9863.00,0.2079
9862.00,0.2079
9861.00,0.2080
9860.00,0.2080
9859.00,0.2079
9858.00,0.2079
9857.00,0.2080
9856.00,0.2083
9855.00,0.2085
9854.00,0.2086
9853.00,0.2085
9852.00,0.2083
9851.00,0.2082
9850.00,0.2082
9849.00,0.2082
9848.00,0.2082
9847.00,0.2081
9846.00,0.2080
9845.00,0.2079
9844.00,0.2080
9843.00,0.2081
9842.00,0.2083
9841.00,0.2085
9840.00,0.2085
9839.00,0.2084
9838.00,0.2082
9837.00,0.2081
9836.00,0.2080
9835.00,0.2079
9834.00,0.2079
9833.00,0.2079
9832.00,0.2079
9831.00,0.2078
9830.00,0.2077
9829.00,0.2077
9828.00,0.2079
9827.00,0.2080
9826.00,0.2081
9825.00,0.2082
9824.00,0.2082
9823.00,0.2082
9822.00,0.2082
9821.00,0.2083
9820.00,0.2084
9819.00,0.2084
9818.00,0.2084
9817.00,0.2083
9816.00,0.2082
9815.00,0.2082
9814.00,0.2082
9813.00,0.2081
9812.00,0.2080
9811.00,0.2079
9810.00,0.2078
9809.00,0.2078
9808.00,0.2079
9807.00,0.2079
9806.00,0.2079
9805.00,0.2079
9804.00,0.2078
9803.00,0.2077
9802.00,0.2076
9801.00,0.2075
9800.00,0.2074
9799.00,0.2074
9798.00,0.2073
9797.00,0.2074
9796.00,0.2075
9795.00,0.2077
9794.00,0.2078
9793.00,0.2079
9792.00,0.2079
9791.00,0.2079
9790.00,0.2079
9789.00,0.2078
9788.00,0.2078
9787.00,0.2077
9786.00,0.2077
9785.00,0.2076
9784.00,0.2075
9783.00,0.2075
9782.00,0.2075
9781.00,0.2077
9780.00,0.2078
9779.00,0.2079
9778.00,0.2080
9777.00,0.2079
9776.00,0.2077
9775.00,0.2076
9774.00,0.2076
9773.00,0.2077
9772.00,0.2077
9771.00,0.2078
9770.00,0.2078
9769.00,0.2077
9768.00,0.2076
9767.00,0.2076
9766.00,0.2076
9765.00,0.2076
9764.00,0.2077
9763.00,0.2077
9762.00,0.2077
9761.00,0.2076
9760.00,0.2075
9759.00,0.2074
9758.00,0.2074
9757.00,0.2074
9756.00,0.2075
9755.00,0.2075
9754.00,0.2076
9753.00,0.2076
9752.00,0.2076
9751.00,0.2075
9750.00,0.2075
9749.00,0.2075
9748.00,0.2075
9747.00,0.2076
9746.00,0.2076
9745.00,0.2076
9744.00,0.2074
9743.00,0.2072
9742.00,0.2071
9741.00,0.2071
9740.00,0.2072
9739.00,0.2073
9738.00,0.2073
9737.00,0.2072
9736.00,0.2070
9735.00,0.2069
9734.00,0.2069
9733.00,0.2070
9732.00,0.2071
9731.00,0.2071
9730.00,0.2069
9729.00,0.2068
9728.00,0.2067
9727.00,0.2069
9726.00,0.2071
9725.00,0.2072
9724.00,0.2073
9723.00,0.2072
9722.00,0.2071
9721.00,0.2070
9720.00,0.2070
9719.00,0.2071
9718.00,0.2071
9717.00,0.2071
9716.00,0.2071
9715.00,0.2070
9714.00,0.2070
9713.00,0.2071
9712.00,0.2072
9711.00,0.2073
9710.00,0.2073
9709.00,0.2073
9708.00,0.2072
9707.00,0.2072
9706.00,0.2072
9705.00,0.2072
9704.00,0.2071
9703.00,0.2071
9702.00,0.2070
9701.00,0.2070
9700.00,0.2070
9699.00,0.2070
9698.00,0.2069
9697.00,0.2068
9696.00,0.2067
9695.00,0.2066
9694.00,0.2066
9693.00,0.2067
9692.00,0.2067
9691.00,0.2068
9690.00,0.2068
9689.00,0.2068
9688.00,0.2069
9687.00,0.2071
9686.00,0.2073
9685.00,0.2074
9684.00,0.2074
9683.00,0.2071
9682.00,0.2069
9681.00,0.2067
9680.00,0.2067
9679.00,0.2067
9678.00,0.2067
9677.00,0.2066
9676.00,0.2064
9675.00,0.2064
9674.00,0.2064
9673.00,0.2066
9672.00,0.2067
9671.00,0.2067
9670.00,0.2067
9669.00,0.2065
9668.00,0.2064
9667.00,0.2064
9666.00,0.2064
9665.00,0.2065
9664.00,0.2065
9663.00,0.2065
9662.00,0.2065
9661.00,0.2064
9660.00,0.2064
9659.00,0.2064
9658.00,0.2064
9657.00,0.2065
9656.00,0.2065
9655.00,0.2064
9654.00,0.2063
9653.00,0.2062
9652.00,0.2062
9651.00,0.2063
9650.00,0.2064
9649.00,0.2065
9648.00,0.2065
9647.00,0.2065
9646.00,0.2064
9645.00,0.2064
9644.00,0.2064
9643.00,0.2064
9642.00,0.2064
9641.00,0.2063
9640.00,0.2063
9639.00,0.2064
9638.00,0.2065
9637.00,0.2065
9636.00,0.2064
9635.00,0.2062
9634.00,0.2059
9633.00,0.2058
9632.00,0.2058
9631.00,0.2060
9630.00,0.2060
9629.00,0.2059
9628.00,0.2058
9627.00,0.2057
9626.00,0.2059
9625.00,0.2061
9624.00,0.2063
9623.00,0.2064
9622.00,0.2063
9621.00,0.2063
9620.00,0.2064
9619.00,0.2065
9618.00,0.2066
9617.00,0.2066
9616.00,0.2064
9615.00,0.2063
9614.00,0.2063
9613.00,0.2064
9612.00,0.2065
9611.00,0.2064
9610.00,0.2062
9609.00,0.2060
9608.00,0.2058
9607.00,0.2058
9606.00,0.2060
9605.00,0.2061
9604.00,0.2060
9603.00,0.2059
9602.00,0.2058
9601.00,0.2057
9600.00,0.2058
9599.00,0.2059
9598.00,0.2060
9597.00,0.2059
9596.00,0.2057
9595.00,0.2056
9594.00,0.2056
9593.00,0.2057
9592.00,0.2058
9591.00,0.2059
9590.00,0.2058
9589.00,0.2058
9588.00,0.2058
9587.00,0.2058
9586.00,0.2057
9585.00,0.2056
9584.00,0.2055
9583.00,0.2054
9582.00,0.2054
9581.00,0.2054
9580.00,0.2054
9579.00,0.2054
9578.00,0.2053
9577.00,0.2052
9576.00,0.2052
9575.00,0.2053
9574.00,0.2054
9573.00,0.2055
9572.00,0.2056
9571.00,0.2056
9570.00,0.2056
9569.00,0.2055
9568.00,0.2055
9567.00,0.2056
9566.00,0.2056
9565.00,0.2055
9564.00,0.2055
9563.00,0.2054
9562.00,0.2054
9561.00,0.2054
9560.00,0.2054
9559.00,0.2054
9558.00,0.2054
9557.00,0.2054
9556.00,0.2054
9555.00,0.2056
9554.00,0.2056
9553.00,0.2056
9552.00,0.2055
9551.00,0.2053
9550.00,0.2052
9549.00,0.2052
9548.00,0.2053
9547.00,0.2053
9546.00,0.2054
9545.00,0.2055
9544.00,0.2056
9543.00,0.2057
9542.00,0.2058
9541.00,0.2058
9540.00,0.2058
9539.00,0.2058
9538.00,0.2057
9537.00,0.2056
9536.00,0.2055
9535.00,0.2054
9534.00,0.2053
9533.00,0.2053
9532.00,0.2052
9531.00,0.2051
9530.00,0.2051
9529.00,0.2051
9528.00,0.2051
9527.00,0.2051
9526.00,0.2051
9525.00,0.2051
9524.00,0.2051
9523.00,0.2050
9522.00,0.2050
9521.00,0.2050
9520.00,0.2050
9519.00,0.2051
9518.00,0.2052
9517.00,0.2053
9516.00,0.2054
9515.00,0.2053
9514.00,0.2051
9513.00,0.2050
9512.00,0.2048
9511.00,0.2047
9510.00,0.2046
9509.00,0.2045
9508.00,0.2045
9507.00,0.2045
9506.00,0.2045
9505.00,0.2045
9504.00,0.2047
9503.00,0.2049
9502.00,0.2050
9501.00,0.2051
9500.00,0.2051
9499.00,0.2051
9498.00,0.2051
9497.00,0.2051
9496.00,0.2050
9495.00,0.2050
9494.00,0.2050
9493.00,0.2050
9492.00,0.2050
9491.00,0.2050
9490.00,0.2050
9489.00,0.2050
9488.00,0.2050
9487.00,0.2050
9486.00,0.2049
9485.00,0.2048
9484.00,0.2047
9483.00,0.2047
9482.00,0.2047
9481.00,0.2047
9480.00,0.2047
9479.00,0.2045
9478.00,0.2044
9477.00,0.2044
9476.00,0.2045
9475.00,0.2045
9474.00,0.2045
9473.00,0.2045
9472.00,0.2044
9471.00,0.2044
9470.00,0.2045
9469.00,0.2045
9468.00,0.2045
9467.00,0.2045
9466.00,0.2046
9465.00,0.2046
9464.00,0.2047
9463.00,0.2047
9462.00,0.2047
9461.00,0.2047
9460.00,0.2047
9459.00,0.2047
9458.00,0.2047
9457.00,0.2046
9456.00,0.2045
9455.00,0.2046
9454.00,0.2046
9453.00,0.2046
9452.00,0.2046
9451.00,0.2045
9450.00,0.2043
9449.00,0.2043
9448.00,0.2043
9447.00,0.2043
9446.00,0.2043
9445.00,0.2042
9444.00,0.2040
9443.00,0.2040
9442.00,0.2040
9441.00,0.2040
9440.00,0.2040
9439.00,0.2041
9438.00,0.2041
9437.00,0.2041
9436.00,0.2042
9435.00,0.2042
9434.00,0.2041
9433.00,0.2040
9432.00,0.2039
9431.00,0.2038
9430.00,0.2038
9429.00,0.2039
9428.00,0.2039
9427.00,0.2039
9426.00,0.2039
9425.00,0.2038
9424.00,0.2038
9423.00,0.2039
9422.00,0.2040
9421.00,0.2041
9420.00,0.2042
9419.00,0.2043
9418.00,0.2043
9417.00,0.2043
9416.00,0.2043
9415.00,0.2042
9414.00,0.2041
9413.00,0.2040
9412.00,0.2040
9411.00,0.2041
9410.00,0.2041
9409.00,0.2040
9408.00,0.2038
9407.00,0.2036
9406.00,0.2035
9405.00,0.2034
9404.00,0.2034
9403.00,0.2034
9402.00,0.2033
9401.00,0.2032
9400.00,0.2031
9399.00,0.2032
9398.00,0.2034
9397.00,0.2035
9396.00,0.2036
9395.00,0.2036
9394.00,0.2035
9393.00,0.2036
9392.00,0.2036
9391.00,0.2037
9390.00,0.2036
9389.00,0.2035
9388.00,0.2034
9387.00,0.2035
9386.00,0.2036
9385.00,0.2037
9384.00,0.2038
9383.00,0.2039
9382.00,0.2039
9381.00,0.2039
9380.00,0.2039
9379.00,0.2039
9378.00,0.2039
9377.00,0.2038
9376.00,0.2037
9375.00,0.2037
9374.00,0.2037
9373.00,0.2037
9372.00,0.2037
9371.00,0.2037
9370.00,0.2036
9369.00,0.2037
9368.00,0.2038
9367.00,0.2038
9366.00,0.2038
9365.00,0.2037
9364.00,0.2036
9363.00,0.2035
9362.00,0.2036
9361.00,0.2036
9360.00,0.2036
9359.00,0.2036
9358.00,0.2035
9357.00,0.2035
9356.00,0.2036
9355.00,0.2038
9354.00,0.2040
9353.00,0.2041
9352.00,0.2041
9351.00,0.2039
9350.00,0.2038
9349.00,0.2037
9348.00,0.2036
9347.00,0.2036
9346.00,0.2035
9345.00,0.2034
9344.00,0.2033
9343.00,0.2033
9342.00,0.2034
9341.00,0.2036
9340.00,0.2038
9339.00,0.2039
9338.00,0.2039
9337.00,0.2038
9336.00,0.2037
9335.00,0.2036
9334.00,0.2035
9333.00,0.2034
9332.00,0.2032
9331.00,0.2030
9330.00,0.2028
9329.00,0.2026
9328.00,0.2026
9327.00,0.2027
9326.00,0.2029
9325.00,0.2031
9324.00,0.2031
9323.00,0.2031
9322.00,0.2030
9321.00,0.2030
9320.00,0.2031
9319.00,0.2032
9318.00,0.2032
9317.00,0.2032
9316.00,0.2032
9315.00,0.2032
9314.00,0.2033
9313.00,0.2033
9312.00,0.2034
9311.00,0.2034
9310.00,0.2034
9309.00,0.2034
9308.00,0.2035
9307.00,0.2035
9306.00,0.2035
9305.00,0.2034
9304.00,0.2032
9303.00,0.2032
9302.00,0.2032
9301.00,0.2032
9300.00,0.2032
9299.00,0.2032
9298.00,0.2031
9297.00,0.2029
9296.00,0.2029
9295.00,0.2029
9294.00,0.2029
9293.00,0.2029
9292.00,0.2029
9291.00,0.2029
9290.00,0.2030
9289.00,0.2030
9288.00,0.2031
9287.00,0.2031
9286.00,0.2031
9285.00,0.2031
9284.00,0.2031
9283.00,0.2030
9282.00,0.2030
9281.00,0.2030
9280.00,0.2029
9279.00,0.2029
9278.00,0.2029
9277.00,0.2028
9276.00,0.2028
9275.00,0.2028
9274.00,0.2029
9273.00,0.2029
9272.00,0.2029
9271.00,0.2028
9270.00,0.2028
9269.00,0.2029
9268.00,0.2029
9267.00,0.2030
9266.00,0.2030
9265.00,0.2029
9264.00,0.2028
9263.00,0.2026
9262.00,0.2026
9261.00,0.2026
9260.00,0.2027
9259.00,0.2027
9258.00,0.2026
9257.00,0.2025
9256.00,0.2025
9255.00,0.2026
9254.00,0.2027
9253.00,0.2028
9252.00,0.2028
9251.00,0.2027
9250.00,0.2026
9249.00,0.2026
9248.00,0.2026
9247.00,0.2026
9246.00,0.2027
9245.00,0.2027
9244.00,0.2026
9243.00,0.2025
9242.00,0.2025
9241.00,0.2025
9240.00,0.2026
9239.00,0.2027
9238.00,0.2027
9237.00,0.2027
9236.00,0.2026
9235.00,0.2025
9234.00,0.2025
9233.00,0.2025
9232.00,0.2025
9231.00,0.2025
9230.00,0.2025
9229.00,0.2026
9228.00,0.2026
9227.00,0.2026
9226.00,0.2027
9225.00,0.2027
9224.00,0.2026
9223.00,0.2026
9222.00,0.2026
9221.00,0.2026
9220.00,0.2026
9219.00,0.2026
9218.00,0.2025
9217.00,0.2025
9216.00,0.2025
9215.00,0.2026
9214.00,0.2027
9213.00,0.2029
9212.00,0.2030
9211.00,0.2030
9210.00,0.2029
9209.00,0.2028
9208.00,0.2027
9207.00,0.2026
9206.00,0.2025
9205.00,0.2024
9204.00,0.2023
9203.00,0.2021
9202.00,0.2021
9201.00,0.2021
9200.00,0.2022
9199.00,0.2022
9198.00,0.2023
9197.00,0.2023
9196.00,0.2023
9195.00,0.2023
9194.00,0.2023
9193.00,0.2023
9192.00,0.2022
9191.00,0.2022
9190.00,0.2022
9189.00,0.2022
9188.00,0.2021
9187.00,0.2022
9186.00,0.2022
9185.00,0.2022
9184.00,0.2022
9183.00,0.2023
9182.00,0.2023
9181.00,0.2023
9180.00,0.2024
9179.00,0.2024
9178.00,0.2024
9177.00,0.2024
9176.00,0.2024
9175.00,0.2025
9174.00,0.2025
9173.00,0.2026
9172.00,0.2026
9171.00,0.2025
9170.00,0.2024
9169.00,0.2024
9168.00,0.2024
9167.00,0.2025
9166.00,0.2024
9165.00,0.2024
9164.00,0.2022
9163.00,0.2022
9162.00,0.2021
9161.00,0.2021
9160.00,0.2020
9159.00,0.2019
9158.00,0.2019
9157.00,0.2019
9156.00,0.2020
9155.00,0.2021
9154.00,0.2021
9153.00,0.2021
9152.00,0.2020
9151.00,0.2019
9150.00,0.2019
9149.00,0.2019
9148.00,0.2018
9147.00,0.2019
9146.00,0.2019
9145.00,0.2019
9144.00,0.2020
9143.00,0.2021
9142.00,0.2022
9141.00,0.2024
9140.00,0.2024
9139.00,0.2024
9138.00,0.2023
9137.00,0.2020
9136.00,0.2018
9135.00,0.2017
9134.00,0.2016
9133.00,0.2016
9132.00,0.2016
9131.00,0.2016
9130.00,0.2016
9129.00,0.2016
9128.00,0.2016
9127.00,0.2017
9126.00,0.2018
9125.00,0.2019
9124.00,0.2019
9123.00,0.2018
9122.00,0.2016
9121.00,0.2014
9120.00,0.2013
9119.00,0.2013
9118.00,0.2014
9117.00,0.2015
9116.00,0.2015
9115.00,0.2014
9114.00,0.2013
9113.00,0.2013
9112.00,0.2014
9111.00,0.2015
9110.00,0.2016
9109.00,0.2016
9108.00,0.2015
9107.00,0.2014
9106.00,0.2015
9105.00,0.2015
9104.00,0.2016
9103.00,0.2016
9102.00,0.2015
9101.00,0.2015
9100.00,0.2015
9099.00,0.2016
9098.00,0.2017
9097.00,0.2017
9096.00,0.2017
9095.00,0.2017
9094.00,0.2018
9093.00,0.2018
9092.00,0.2018
9091.00,0.2017
9090.00,0.2016
9089.00,0.2015
9088.00,0.2014
9087.00,0.2013
9086.00,0.2013
9085.00,0.2014
9084.00,0.2015
9083.00,0.2015
9082.00,0.2015
9081.00,0.2016
9080.00,0.2016
9079.00,0.2016
9078.00,0.2016
9077.00,0.2016
9076.00,0.2015
9075.00,0.2014
9074.00,0.2012
9073.00,0.2011
9072.00,0.2010
9071.00,0.2009
9070.00,0.2009
9069.00,0.2010
9068.00,0.2010
9067.00,0.2011
9066.00,0.2011
9065.00,0.2012
9064.00,0.2012
9063.00,0.2013
9062.00,0.2014
9061.00,0.2014
9060.00,0.2014
9059.00,0.2013
9058.00,0.2013
9057.00,0.2013
9056.00,0.2014
9055.00,0.2013
9054.00,0.2012
9053.00,0.2012
9052.00,0.2011
9051.00,0.2012
9050.00,0.2013
9049.00,0.2014
9048.00,0.2014
9047.00,0.2014
9046.00,0.2013
9045.00,0.2013
9044.00,0.2013
9043.00,0.2013
9042.00,0.2013
9041.00,0.2012
9040.00,0.2011
9039.00,0.2011
9038.00,0.2011
9037.00,0.2012
9036.00,0.2012
9035.00,0.2012
9034.00,0.2011
9033.00,0.2010
9032.00,0.2010
9031.00,0.2011
9030.00,0.2010
9029.00,0.2009
9028.00,0.2009
9027.00,0.2009
9026.00,0.2010
9025.00,0.2011
9024.00,0.2012
9023.00,0.2011
9022.00,0.2011
9021.00,0.2010
9020.00,0.2011
9019.00,0.2010
9018.00,0.2010
9017.00,0.2009
9016.00,0.2008
9015.00,0.2008
9014.00,0.2009
9013.00,0.2009
9012.00,0.2010
9011.00,0.2010
9010.00,0.2009
9009.00,0.2009
9008.00,0.2008
9007.00,0.2008
9006.00,0.2008
9005.00,0.2008
9004.00,0.2009
9003.00,0.2010
9002.00,0.2010
9001.00,0.2011
9000.00,0.2011
8999.00,0.2012
8998.00,0.2012
8997.00,0.2012
8996.00,0.2011
8995.00,0.2010
8994.00,0.2008
8993.00,0.2008
8992.00,0.2009
8991.00,0.2011
8990.00,0.2012
8989.00,0.2014
8988.00,0.2014
8987.00,0.2014
8986.00,0.2014
8985.00,0.2015
8984.00,0.2015
8983.00,0.2014
8982.00,0.2013
8981.00,0.2010
8980.00,0.2008
8979.00,0.2007
8978.00,0.2006
8977.00,0.2007
8976.00,0.2007
8975.00,0.2008
8974.00,0.2009
8973.00,0.2009
8972.00,0.2009
8971.00,0.2010
8970.00,0.2011
8969.00,0.2012
8968.00,0.2012
8967.00,0.2012
8966.00,0.2010
8965.00,0.2008
8964.00,0.2006
8963.00,0.2006
8962.00,0.2007
8961.00,0.2007
8960.00,0.2006
8959.00,0.2005
8958.00,0.2004
8957.00,0.2005
8956.00,0.2006
8955.00,0.2008
8954.00,0.2008
8953.00,0.2008
8952.00,0.2007
8951.00,0.2008
8950.00,0.2008
8949.00,0.2009
8948.00,0.2009
8947.00,0.2008
8946.00,0.2007
8945.00,0.2007
8944.00,0.2007
8943.00,0.2007
8942.00,0.2007
8941.00,0.2007
8940.00,0.2007
8939.00,0.2007
8938.00,0.2008
8937.00,0.2009
8936.00,0.2010
8935.00,0.2010
8934.00,0.2010
8933.00,0.2010
8932.00,0.2009
8931.00,0.2009
8930.00,0.2009
8929.00,0.2009
8928.00,0.2008
8927.00,0.2008
8926.00,0.2008
8925.00,0.2008
8924.00,0.2009
8923.00,0.2010
8922.00,0.2010
8921.00,0.2010
8920.00,0.2010
8919.00,0.2010
8918.00,0.2011
8917.00,0.2010
8916.00,0.2010
8915.00,0.2009
8914.00,0.2009
8913.00,0.2010
8912.00,0.2010
8911.00,0.2011
8910.00,0.2010
8909.00,0.2009
8908.00,0.2009
8907.00,0.2009
8906.00,0.2010
8905.00,0.2010
8904.00,0.2010
8903.00,0.2009
8902.00,0.2009
8901.00,0.2009
8900.00,0.2009
8899.00,0.2010
8898.00,0.2010
8897.00,0.2011
8896.00,0.2011
8895.00,0.2011
8894.00,0.2010
8893.00,0.2009
8892.00,0.2009
8891.00,0.2010
8890.00,0.2011
8889.00,0.2012
8888.00,0.2012
8887.00,0.2012
8886.00,0.2012
8885.00,0.2013
8884.00,0.2015
8883.00,0.2016
8882.00,0.2016
8881.00,0.2016
8880.00,0.2015
8879.00,0.2015
8878.00,0.2015
8877.00,0.2015
8876.00,0.2014
8875.00,0.2014
8874.00,0.2013
8873.00,0.2012
8872.00,0.2011
8871.00,0.2011
8870.00,0.2011
8869.00,0.2011
8868.00,0.2011
8867.00,0.2011
8866.00,0.2012
8865.00,0.2012
8864.00,0.2013
8863.00,0.2013
8862.00,0.2013
8861.00,0.2013
8860.00,0.2013
8859.00,0.2012
8858.00,0.2012
8857.00,0.2012
8856.00,0.2012
8855.00,0.2012
8854.00,0.2013
8853.00,0.2014
8852.00,0.2015
8851.00,0.2015
8850.00,0.2015
8849.00,0.2015
8848.00,0.2015
8847.00,0.2016
8846.00,0.2016
8845.00,0.2016
8844.00,0.2015
8843.00,0.2014
8842.00,0.2015
8841.00,0.2016
8840.00,0.2017
8839.00,0.2018
8838.00,0.2019
8837.00,0.2019
8836.00,0.2020
8835.00,0.2021
8834.00,0.2021
8833.00,0.2021
8832.00,0.2021
8831.00,0.2021
8830.00,0.2022
8829.00,0.2022
8828.00,0.2022
8827.00,0.2022
8826.00,0.2022
8825.00,0.2022
8824.00,0.2022
8823.00,0.2022
8822.00,0.2022
8821.00,0.2022
8820.00,0.2023
8819.00,0.2024
8818.00,0.2026
8817.00,0.2027
8816.00,0.2027
8815.00,0.2027
8814.00,0.2027
8813.00,0.2027
8812.00,0.2027
8811.00,0.2026
8810.00,0.2025
8809.00,0.2025
8808.00,0.2026
8807.00,0.2027
8806.00,0.2027
8805.00,0.2027
8804.00,0.2028
8803.00,0.2028
8802.00,0.2029
8801.00,0.2030
8800.00,0.2030
8799.00,0.2029
8798.00,0.2027
8797.00,0.2027
8796.00,0.2028
8795.00,0.2030
8794.00,0.2030
8793.00,0.2030
8792.00,0.2030
8791.00,0.2030
8790.00,0.2031
8789.00,0.2032
8788.00,0.2032
8787.00,0.2032
8786.00,0.2032
8785.00,0.2032
8784.00,0.2033
8783.00,0.2033
8782.00,0.2034
8781.00,0.2034
8780.00,0.2034
8779.00,0.2034
8778.00,0.2034
8777.00,0.2035
8776.00,0.2034
8775.00,0.2034
8774.00,0.2034
8773.00,0.2035
8772.00,0.2037
8771.00,0.2038
8770.00,0.2040
8769.00,0.2040
8768.00,0.2041
8767.00,0.2042
8766.00,0.2044
8765.00,0.2044
8764.00,0.2045
8763.00,0.2044
8762.00,0.2043
8761.00,0.2042
8760.00,0.2043
8759.00,0.2044
8758.00,0.2045
8757.00,0.2045
8756.00,0.2046
8755.00,0.2046
8754.00,0.2046
8753.00,0.2046
8752.00,0.2046
8751.00,0.2047
8750.00,0.2048
8749.00,0.2049
8748.00,0.2049
8747.00,0.2050
8746.00,0.2050
8745.00,0.2051
8744.00,0.2052
8743.00,0.2053
8742.00,0.2053
8741.00,0.2052
8740.00,0.2051
8739.00,0.2050
8738.00,0.2050
8737.00,0.2050
8736.00,0.2051
8735.00,0.2051
8734.00,0.2052
8733.00,0.2053
8732.00,0.2054
8731.00,0.2054
8730.00,0.2054
8729.00,0.2056
8728.00,0.2058
8727.00,0.2059
8726.00,0.2060
8725.00,0.2060
8724.00,0.2059
8723.00,0.2060
8722.00,0.2061
8721.00,0.2063
8720.00,0.2064
8719.00,0.2064
8718.00,0.2064
8717.00,0.2063
8716.00,0.2064
8715.00,0.2065
8714.00,0.2066
8713.00,0.2066
8712.00,0.2065
8711.00,0.2064
8710.00,0.2064
8709.00,0.2065
8708.00,0.2065
8707.00,0.2066
8706.00,0.2066
8705.00,0.2068
8704.00,0.2070
8703.00,0.2072
8702.00,0.2074
8701.00,0.2074
8700.00,0.2074
8699.00,0.2074
8698.00,0.2075
8697.00,0.2077
8696.00,0.2077
8695.00,0.2076
8694.00,0.2075
8693.00,0.2075
8692.00,0.2075
8691.00,0.2077
8690.00,0.2078
8689.00,0.2078
8688.00,0.2078
8687.00,0.2079
8686.00,0.2080
8685.00,0.2082
8684.00,0.2083
8683.00,0.2085
8682.00,0.2086
8681.00,0.2087
8680.00,0.2088
8679.00,0.2089
8678.00,0.2089
8677.00,0.2090
8676.00,0.2090
8675.00,0.2090
8674.00,0.2090
8673.00,0.2090
8672.00,0.2090
8671.00,0.2090
8670.00,0.2090
8669.00,0.2090
8668.00,0.2090
8667.00,0.2091
8666.00,0.2091
8665.00,0.2093
8664.00,0.2094
8663.00,0.2095
8662.00,0.2096
8661.00,0.2098
8660.00,0.2099
8659.00,0.2100
8658.00,0.2101
8657.00,0.2102
8656.00,0.2102
8655.00,0.2102
8654.00,0.2102
8653.00,0.2102
8652.00,0.2103
8651.00,0.2104
8650.00,0.2105
8649.00,0.2106
8648.00,0.2106
8647.00,0.2107
8646.00,0.2108
8645.00,0.2109
8644.00,0.2111
8643.00,0.2112
8642.00,0.2113
8641.00,0.2114
8640.00,0.2114
8639.00,0.2115
8638.00,0.2116
8637.00,0.2117
8636.00,0.2117
8635.00,0.2118
8634.00,0.2119
8633.00,0.2120
8632.00,0.2121
8631.00,0.2122
8630.00,0.2122
8629.00,0.2123
8628.00,0.2124
8627.00,0.2125
8626.00,0.2126
8625.00,0.2126
8624.00,0.2127
8623.00,0.2128
8622.00,0.2128
8621.00,0.2129
8620.00,0.2130
8619.00,0.2131
8618.00,0.2131
8617.00,0.2131
8616.00,0.2131
8615.00,0.2130
8614.00,0.2130
8613.00,0.2131
8612.00,0.2132
8611.00,0.2133
8610.00,0.2133
8609.00,0.2134
8608.00,0.2135
8607.00,0.2136
8606.00,0.2137
8605.00,0.2138
8604.00,0.2139
8603.00,0.2140
8602.00,0.2140
8601.00,0.2140
8600.00,0.2141
8599.00,0.2142
8598.00,0.2143
8597.00,0.2144
8596.00,0.2144
8595.00,0.2145
8594.00,0.2145
8593.00,0.2145
8592.00,0.2145
8591.00,0.2146
8590.00,0.2146
8589.00,0.2146
8588.00,0.2146
8587.00,0.2147
8586.00,0.2148
8585.00,0.2148
8584.00,0.2149
8583.00,0.2150
8582.00,0.2151
8581.00,0.2153
8580.00,0.2154
8579.00,0.2155
8578.00,0.2156
8577.00,0.2157
8576.00,0.2158
8575.00,0.2158
8574.00,0.2159
8573.00,0.2160
8572.00,0.2161
8571.00,0.2162
8570.00,0.2162
8569.00,0.2161
8568.00,0.2161
8567.00,0.2160
8566.00,0.2160
8565.00,0.2161
8564.00,0.2161
8563.00,0.2162
8562.00,0.2163
8561.00,0.2164
8560.00,0.2166
8559.00,0.2167
8558.00,0.2169
8557.00,0.2170
8556.00,0.2170
8555.00,0.2171
8554.00,0.2171
8553.00,0.2171
8552.00,0.2170
8551.00,0.2169
8550.00,0.2168
8549.00,0.2168
8548.00,0.2169
8547.00,0.2170
8546.00,0.2171
8545.00,0.2172
8544.00,0.2174
8543.00,0.2176
8542.00,0.2177
8541.00,0.2178
8540.00,0.2179
8539.00,0.2179
8538.00,0.2180
8537.00,0.2180
8536.00,0.2180
8535.00,0.2180
8534.00,0.2179
8533.00,0.2179
8532.00,0.2180
8531.00,0.2181
8530.00,0.2182
8529.00,0.2183
8528.00,0.2183
8527.00,0.2183
8526.00,0.2183
8525.00,0.2184
8524.00,0.2185
8523.00,0.2185
8522.00,0.2186
8521.00,0.2186
8520.00,0.2186
8519.00,0.2187
8518.00,0.2187
8517.00,0.2188
8516.00,0.2189
8515.00,0.2190
8514.00,0.2190
8513.00,0.2191
8512.00,0.2191
8511.00,0.2192
8510.00,0.2193
8509.00,0.2193
8508.00,0.2194
8507.00,0.2194
8506.00,0.2194
8505.00,0.2195
8504.00,0.2196
8503.00,0.2197
8502.00,0.2198
8501.00,0.2199
8500.00,0.2200
8499.00,0.2200
8498.00,0.2201
8497.00,0.2201
8496.00,0.2201
8495.00,0.2201
8494.00,0.2201
8493.00,0.2202
8492.00,0.2202
8491.00,0.2203
8490.00,0.2203
8489.00,0.2204
8488.00,0.2204
8487.00,0.2205
8486.00,0.2206
8485.00,0.2206
8484.00,0.2206
8483.00,0.2207
8482.00,0.2207
8481.00,0.2208
8480.00,0.2208
8479.00,0.2209
8478.00,0.2210
8477.00,0.2211
8476.00,0.2213
8475.00,0.2214
8474.00,0.2214
8473.00,0.2214
8472.00,0.2215
8471.00,0.2216
8470.00,0.2216
8469.00,0.2216
8468.00,0.2215
8467.00,0.2214
8466.00,0.2214
8465.00,0.2215
8464.00,0.2215
8463.00,0.2217
8462.00,0.2218
8461.00,0.2220
8460.00,0.2222
8459.00,0.2223
8458.00,0.2223
8457.00,0.2223
8456.00,0.2223
8455.00,0.2224
8454.00,0.2224
8453.00,0.2224
8452.00,0.2223
8451.00,0.2223
8450.00,0.2223
8449.00,0.2224
8448.00,0.2226
8447.00,0.2227
8446.00,0.2229
8445.00,0.2230
8444.00,0.2231
8443.00,0.2231
8442.00,0.2231
8441.00,0.2231
8440.00,0.2231
8439.00,0.2232
8438.00,0.2232
8437.00,0.2232
8436.00,0.2231
8435.00,0.2230
8434.00,0.2230
8433.00,0.2231
8432.00,0.2232
8431.00,0.2232
8430.00,0.2232
8429.00,0.2233
8428.00,0.2233
8427.00,0.2234
8426.00,0.2236
8425.00,0.2237
8424.00,0.2238
8423.00,0.2238
8422.00,0.2238
8421.00,0.2238
8420.00,0.2239
8419.00,0.2239
8418.00,0.2239
8417.00,0.2239
8416.00,0.2239
8415.00,0.2238
8414.00,0.2239
8413.00,0.2240
8412.00,0.2241
8411.00,0.2242
8410.00,0.2243
8409.00,0.2243
8408.00,0.2244
8407.00,0.2245
8406.00,0.2246
8405.00,0.2247
8404.00,0.2247
8403.00,0.2247
8402.00,0.2246
8401.00,0.2245
8400.00,0.2244
8399.00,0.2244
8398.00,0.2244
8397.00,0.2244
8396.00,0.2245
8395.00,0.2245
8394.00,0.2245
8393.00,0.2246
8392.00,0.2247
8391.00,0.2248
8390.00,0.2248
8389.00,0.2248
8388.00,0.2248
8387.00,0.2248
8386.00,0.2249
8385.00,0.2249
8384.00,0.2249
8383.00,0.2248
8382.00,0.2248
8381.00,0.2249
8380.00,0.2249
8379.00,0.2249
8378.00,0.2249
8377.00,0.2249
8376.00,0.2249
8375.00,0.2250
8374.00,0.2251
8373.00,0.2251
8372.00,0.2251
8371.00,0.2250
8370.00,0.2250
8369.00,0.2250
8368.00,0.2249
8367.00,0.2249
8366.00,0.2248
8365.00,0.2248
8364.00,0.2248
8363.00,0.2248
8362.00,0.2248
8361.00,0.2248
8360.00,0.2248
8359.00,0.2249
8358.00,0.2249
8357.00,0.2250
8356.00,0.2250
8355.00,0.2251
8354.00,0.2251
8353.00,0.2253
8352.00,0.2254
8351.00,0.2255
8350.00,0.2255
8349.00,0.2255
8348.00,0.2255
8347.00,0.2255
8346.00,0.2255
8345.00,0.2255
8344.00,0.2255
8343.00,0.2254
8342.00,0.2254
8341.00,0.2253
8340.00,0.2253
8339.00,0.2252
8338.00,0.2252
8337.00,0.2252
8336.00,0.2252
8335.00,0.2251
8334.00,0.2252
8333.00,0.2252
8332.00,0.2253
8331.00,0.2254
8330.00,0.2254
8329.00,0.2254
8328.00,0.2254
8327.00,0.2253
8326.00,0.2253
8325.00,0.2252
8324.00,0.2252
8323.00,0.2252
8322.00,0.2251
8321.00,0.2251
8320.00,0.2251
8319.00,0.2252
8318.00,0.2253
8317.00,0.2253
8316.00,0.2254
8315.00,0.2254
8314.00,0.2254
8313.00,0.2254
8312.00,0.2254
8311.00,0.2254
8310.00,0.2254
8309.00,0.2254
8308.00,0.2254
8307.00,0.2254
8306.00,0.2254
8305.00,0.2254
8304.00,0.2255
8303.00,0.2255
8302.00,0.2255
8301.00,0.2254
8300.00,0.2253
8299.00,0.2253
8298.00,0.2253
8297.00,0.2254
8296.00,0.2254
8295.00,0.2255
8294.00,0.2255
8293.00,0.2254
8292.00,0.2254
8291.00,0.2254
8290.00,0.2254
8289.00,0.2254
8288.00,0.2254
8287.00,0.2254
8286.00,0.2253
8285.00,0.2252
8284.00,0.2252
8283.00,0.2252
8282.00,0.2253
8281.00,0.2252
8280.00,0.2252
8279.00,0.2252
8278.00,0.2252
8277.00,0.2252
8276.00,0.2252
8275.00,0.2253
8274.00,0.2253
8273.00,0.2253
8272.00,0.2252
8271.00,0.2252
8270.00,0.2252
8269.00,0.2252
8268.00,0.2252
8267.00,0.2252
8266.00,0.2252
8265.00,0.2252
8264.00,0.2252
8263.00,0.2252
8262.00,0.2252
8261.00,0.2252
8260.00,0.2252
8259.00,0.2251
8258.00,0.2250
8257.00,0.2250
8256.00,0.2249
8255.00,0.2248
8254.00,0.2247
8253.00,0.2247
8252.00,0.2247
8251.00,0.2248
8250.00,0.2247
8249.00,0.2247
8248.00,0.2247
8247.00,0.2246
8246.00,0.2246
8245.00,0.2246
8244.00,0.2245
8243.00,0.2244
8242.00,0.2243
8241.00,0.2243
8240.00,0.2243
8239.00,0.2243
8238.00,0.2244
8237.00,0.2245
8236.00,0.2245
8235.00,0.2246
8234.00,0.2246
8233.00,0.2245
8232.00,0.2245
8231.00,0.2244
8230.00,0.2243
8229.00,0.2242
8228.00,0.2241
8227.00,0.2240
8226.00,0.2240
8225.00,0.2240
8224.00,0.2240
8223.00,0.2241
8222.00,0.2242
8221.00,0.2242
8220.00,0.2242
8219.00,0.2242
8218.00,0.2242
8217.00,0.2242
8216.00,0.2242
8215.00,0.2242
8214.00,0.2241
8213.00,0.2240
8212.00,0.2239
8211.00,0.2238
8210.00,0.2238
8209.00,0.2238
8208.00,0.2237
8207.00,0.2236
8206.00,0.2235
8205.00,0.2235
8204.00,0.2236
8203.00,0.2237
8202.00,0.2237
8201.00,0.2237
8200.00,0.2237
8199.00,0.2236
8198.00,0.2235
8197.00,0.2234
8196.00,0.2234
8195.00,0.2234
8194.00,0.2234
8193.00,0.2234
8192.00,0.2233
8191.00,0.2233
8190.00,0.2233
8189.00,0.2233
8188.00,0.2234
8187.00,0.2234
8186.00,0.2233
8185.00,0.2232
8184.00,0.2231
8183.00,0.2231
8182.00,0.2231
8181.00,0.2231
8180.00,0.2231
8179.00,0.2231
8178.00,0.2231
8177.00,0.2231
8176.00,0.2231
8175.00,0.2230
8174.00,0.2229
8173.00,0.2228
8172.00,0.2227
8171.00,0.2226
8170.00,0.2226
8169.00,0.2226
8168.00,0.2226
8167.00,0.2226
8166.00,0.2226
8165.00,0.2226
8164.00,0.2226
8163.00,0.2226
8162.00,0.2226
8161.00,0.2225
8160.00,0.2223
8159.00,0.2222
8158.00,0.2221
8157.00,0.2221
8156.00,0.2220
8155.00,0.2221
8154.00,0.2221
8153.00,0.2221
8152.00,0.2221
8151.00,0.2222
8150.00,0.2223
8149.00,0.2222
8148.00,0.2222
8147.00,0.2221
8146.00,0.2220
8145.00,0.2220
8144.00,0.2220
8143.00,0.2219
8142.00,0.2218
8141.00,0.2216
8140.00,0.2216
8139.00,0.2215
8138.00,0.2215
8137.00,0.2215
8136.00,0.2214
8135.00,0.2213
8134.00,0.2213
8133.00,0.2213
8132.00,0.2213
8131.00,0.2213
8130.00,0.2214
8129.00,0.2214
8128.00,0.2214
8127.00,0.2214
8126.00,0.2213
8125.00,0.2213
8124.00,0.2213
8123.00,0.2213
8122.00,0.2212
8121.00,0.2212
8120.00,0.2211
8119.00,0.2211
8118.00,0.2211
8117.00,0.2211
8116.00,0.2211
8115.00,0.2210
8114.00,0.2209
8113.00,0.2209
8112.00,0.2208
8111.00,0.2208
8110.00,0.2208
8109.00,0.2207
8108.00,0.2207
8107.00,0.2207
8106.00,0.2207
8105.00,0.2207
8104.00,0.2207
8103.00,0.2206
8102.00,0.2205
8101.00,0.2204
8100.00,0.2203
8099.00,0.2203
8098.00,0.2202
8097.00,0.2201
8096.00,0.2201
8095.00,0.2202
8094.00,0.2202
8093.00,0.2202
8092.00,0.2202
8091.00,0.2202
8090.00,0.2202
8089.00,0.2201
8088.00,0.2201
8087.00,0.2200
8086.00,0.2199
8085.00,0.2199
8084.00,0.2199
8083.00,0.2199
8082.00,0.2199
8081.00,0.2198
8080.00,0.2198
8079.00,0.2199
8078.00,0.2198
8077.00,0.2197
8076.00,0.2196
8075.00,0.2195
8074.00,0.2194
8073.00,0.2194
8072.00,0.2194
8071.00,0.2194
8070.00,0.2193
8069.00,0.2193
8068.00,0.2193
8067.00,0.2193
8066.00,0.2193
8065.00,0.2193
8064.00,0.2193
8063.00,0.2193
8062.00,0.2192
8061.00,0.2192
8060.00,0.2192
8059.00,0.2191
8058.00,0.2191
8057.00,0.2190
8056.00,0.2190
8055.00,0.2189
8054.00,0.2189
8053.00,0.2189
8052.00,0.2189
8051.00,0.2189
8050.00,0.2189
8049.00,0.2189
8048.00,0.2189
8047.00,0.2188
8046.00,0.2188
8045.00,0.2187
8044.00,0.2186
8043.00,0.2186
8042.00,0.2185
8041.00,0.2185
8040.00,0.2184
8039.00,0.2184
8038.00,0.2184
8037.00,0.2185
8036.00,0.2185
8035.00,0.2184
8034.00,0.2184
8033.00,0.2184
8032.00,0.2183
8031.00,0.2183
8030.00,0.2183
8029.00,0.2183
8028.00,0.2183
8027.00,0.2183
8026.00,0.2183
8025.00,0.2183
8024.00,0.2183
8023.00,0.2183
8022.00,0.2182
8021.00,0.2181
8020.00,0.2181
8019.00,0.2180
8018.00,0.2179
8017.00,0.2179
8016.00,0.2178
8015.00,0.2177
8014.00,0.2177
8013.00,0.2177
8012.00,0.2177
8011.00,0.2176
8010.00,0.2176
8009.00,0.2177
8008.00,0.2177
8007.00,0.2177
8006.00,0.2177
8005.00,0.2177
8004.00,0.2176
8003.00,0.2176
8002.00,0.2176
8001.00,0.2176
8000.00,0.2175
7999.00,0.2174
7998.00,0.2174
7997.00,0.2174
7996.00,0.2174
7995.00,0.2174
7994.00,0.2174
7993.00,0.2173
7992.00,0.2173
7991.00,0.2173
7990.00,0.2173
7989.00,0.2172
7988.00,0.2172
7987.00,0.2172
7986.00,0.2172
7985.00,0.2172
7984.00,0.2171
7983.00,0.2171
7982.00,0.2171
7981.00,0.2170
7980.00,0.2170
7979.00,0.2170
7978.00,0.2170
7977.00,0.2170
7976.00,0.2170
7975.00,0.2170
7974.00,0.2169
7973.00,0.2169
7972.00,0.2168
7971.00,0.2167
7970.00,0.2167
7969.00,0.2167
7968.00,0.2166
7967.00,0.2165
7966.00,0.2165
7965.00,0.2164
7964.00,0.2164
7963.00,0.2164
7962.00,0.2164
7961.00,0.2164
7960.00,0.2164
7959.00,0.2164
7958.00,0.2164
7957.00,0.2163
7956.00,0.2163
7955.00,0.2163
7954.00,0.2163
7953.00,0.2162
7952.00,0.2161
7951.00,0.2161
7950.00,0.2161
7949.00,0.2161
7948.00,0.2162
7947.00,0.2161
7946.00,0.2161
7945.00,0.2160
7944.00,0.2160
7943.00,0.2160
7942.00,0.2160
7941.00,0.2160
7940.00,0.2160
7939.00,0.2160
7938.00,0.2161
7937.00,0.2161
7936.00,0.2161
7935.00,0.2161
7934.00,0.2161
7933.00,0.2161
7932.00,0.2160
7931.00,0.2160
7930.00,0.2159
7929.00,0.2158
7928.00,0.2157
7927.00,0.2157
7926.00,0.2157
7925.00,0.2158
7924.00,0.2158
7923.00,0.2158
7922.00,0.2158
7921.00,0.2157
7920.00,0.2157
7919.00,0.2156
7918.00,0.2156
7917.00,0.2155
7916.00,0.2154
7915.00,0.2154
7914.00,0.2153
7913.00,0.2154
7912.00,0.2154
7911.00,0.2154
7910.00,0.2154
7909.00,0.2154
7908.00,0.2153
7907.00,0.2153
7906.00,0.2153
7905.00,0.2153
7904.00,0.2153
7903.00,0.2153
7902.00,0.2154
7901.00,0.2154
7900.00,0.2154
7899.00,0.2153
7898.00,0.2153
7897.00,0.2153
7896.00,0.2153
7895.00,0.2152
7894.00,0.2152
7893.00,0.2151
7892.00,0.2150
7891.00,0.2150
7890.00,0.2150
7889.00,0.2149
7888.00,0.2149
7887.00,0.2149
7886.00,0.2149
7885.00,0.2149
7884.00,0.2148
7883.00,0.2147
7882.00,0.2147
7881.00,0.2147
7880.00,0.2147
7879.00,0.2148
7878.00,0.2148
7877.00,0.2149
7876.00,0.2149
7875.00,0.2149
7874.00,0.2149
7873.00,0.2149
7872.00,0.2148
7871.00,0.2147
7870.00,0.2146
7869.00,0.2145
7868.00,0.2144
7867.00,0.2143
7866.00,0.2143
7865.00,0.2143
7864.00,0.2142
7863.00,0.2142
7862.00,0.2142
7861.00,0.2143
7860.00,0.2143
7859.00,0.2142
7858.00,0.2142
7857.00,0.2142
7856.00,0.2143
7855.00,0.2143
7854.00,0.2143
7853.00,0.2142
7852.00,0.2142
7851.00,0.2141
7850.00,0.2141
7849.00,0.2141
7848.00,0.2141
7847.00,0.2141
7846.00,0.2140
7845.00,0.2140
7844.00,0.2139
7843.00,0.2138
7842.00,0.2138
7841.00,0.2137
7840.00,0.2137
7839.00,0.2136
7838.00,0.2136
7837.00,0.2136
7836.00,0.2136
7835.00,0.2137
7834.00,0.2137
7833.00,0.2136
7832.00,0.2136
7831.00,0.2136
7830.00,0.2135
7829.00,0.2135
7828.00,0.2134
7827.00,0.2134
7826.00,0.2134
7825.00,0.2134
7824.00,0.2134
7823.00,0.2133
7822.00,0.2133
7821.00,0.2133
7820.00,0.2133
7819.00,0.2132
7818.00,0.2132
7817.00,0.2131
7816.00,0.2131
7815.00,0.2131
7814.00,0.2131
7813.00,0.2130
7812.00,0.2130
7811.00,0.2129
7810.00,0.2129
7809.00,0.2129
7808.00,0.2128
7807.00,0.2128
7806.00,0.2127
7805.00,0.2126
7804.00,0.2126
7803.00,0.2126
7802.00,0.2125
7801.00,0.2126
7800.00,0.2126
7799.00,0.2126
7798.00,0.2126
7797.00,0.2125
7796.00,0.2124
7795.00,0.2124
7794.00,0.2124
7793.00,0.2124
7792.00,0.2123
7791.00,0.2122
7790.00,0.2122
7789.00,0.2122
7788.00,0.2123
7787.00,0.2123
7786.00,0.2123
7785.00,0.2123
7784.00,0.2122
7783.00,0.2122
7782.00,0.2122
7781.00,0.2122
7780.00,0.2122
7779.00,0.2121
7778.00,0.2121
7777.00,0.2120
7776.00,0.2120
7775.00,0.2121
7774.00,0.2121
7773.00,0.2121
7772.00,0.2120
7771.00,0.2120
7770.00,0.2119
7769.00,0.2119
7768.00,0.2118
7767.00,0.2118
7766.00,0.2117
7765.00,0.2117
7764.00,0.2116
7763.00,0.2116
7762.00,0.2115
7761.00,0.2115
7760.00,0.2114
7759.00,0.2113
7758.00,0.2113
7757.00,0.2113
7756.00,0.2113
7755.00,0.2112
7754.00,0.2112
7753.00,0.2112
7752.00,0.2113
7751.00,0.2113
7750.00,0.2113
7749.00,0.2112
7748.00,0.2112
7747.00,0.2111
7746.00,0.2111
7745.00,0.2110
7744.00,0.2110
7743.00,0.2109
7742.00,0.2109
7741.00,0.2109
7740.00,0.2108
7739.00,0.2108
7738.00,0.2108
7737.00,0.2108
7736.00,0.2109
7735.00,0.2108
7734.00,0.2108
7733.00,0.2108
7732.00,0.2107
7731.00,0.2107
7730.00,0.2107
7729.00,0.2107
7728.00,0.2107
7727.00,0.2106
7726.00,0.2106
7725.00,0.2105
7724.00,0.2105
7723.00,0.2105
7722.00,0.2105
7721.00,0.2104
7720.00,0.2104
7719.00,0.2103
7718.00,0.2103
7717.00,0.2104
7716.00,0.2104
7715.00,0.2104
7714.00,0.2104
7713.00,0.2103
7712.00,0.2103
7711.00,0.2103
7710.00,0.2103
7709.00,0.2103
7708.00,0.2102
7707.00,0.2102
7706.00,0.2101
7705.00,0.2101
7704.00,0.2100
7703.00,0.2100
7702.00,0.2100
7701.00,0.2100
7700.00,0.2100
7699.00,0.2100
7698.00,0.2100
7697.00,0.2101
7696.00,0.2101
7695.00,0.2101
7694.00,0.2101
7693.00,0.2101
7692.00,0.2101
7691.00,0.2100
7690.00,0.2100
7689.00,0.2100
7688.00,0.2099
7687.00,0.2099
7686.00,0.2099
7685.00,0.2098
7684.00,0.2097
7683.00,0.2097
7682.00,0.2097
7681.00,0.2098
7680.00,0.2098
7679.00,0.2098
7678.00,0.2098
7677.00,0.2098
7676.00,0.2097
7675.00,0.2097
7674.00,0.2096
7673.00,0.2095
7672.00,0.2095
7671.00,0.2095
7670.00,0.2095
7669.00,0.2095
7668.00,0.2095
7667.00,0.2095
7666.00,0.2095
7665.00,0.2096
7664.00,0.2096
7663.00,0.2096
7662.00,0.2095
7661.00,0.2095
7660.00,0.2095
7659.00,0.2095
7658.00,0.2096
7657.00,0.2096
7656.00,0.2095
7655.00,0.2095
7654.00,0.2095
7653.00,0.2096
7652.00,0.2096
7651.00,0.2096
7650.00,0.2096
7649.00,0.2096
7648.00,0.2096
7647.00,0.2096
7646.00,0.2096
7645.00,0.2096
7644.00,0.2095
7643.00,0.2094
7642.00,0.2094
7641.00,0.2094
7640.00,0.2094
7639.00,0.2094
7638.00,0.2093
7637.00,0.2093
7636.00,0.2094
7635.00,0.2094
7634.00,0.2095
7633.00,0.2095
7632.00,0.2095
7631.00,0.2096
7630.00,0.2096
7629.00,0.2096
7628.00,0.2096
7627.00,0.2096
7626.00,0.2096
7625.00,0.2096
7624.00,0.2096
7623.00,0.2096
7622.00,0.2096
7621.00,0.2096
7620.00,0.2096
7619.00,0.2096
7618.00,0.2096
7617.00,0.2095
7616.00,0.2095
7615.00,0.2095
7614.00,0.2095
7613.00,0.2095
7612.00,0.2095
7611.00,0.2096
7610.00,0.2096
7609.00,0.2096
7608.00,0.2096
7607.00,0.2096
7606.00,0.2096
7605.00,0.2097
7604.00,0.2097
7603.00,0.2097
7602.00,0.2097
7601.00,0.2097
7600.00,0.2098
7599.00,0.2099
7598.00,0.2099
7597.00,0.2099
7596.00,0.2099
7595.00,0.2100
7594.00,0.2101
7593.00,0.2101
7592.00,0.2100
7591.00,0.2099
7590.00,0.2099
7589.00,0.2099
7588.00,0.2099
7587.00,0.2099
7586.00,0.2099
7585.00,0.2099
7584.00,0.2099
7583.00,0.2099
7582.00,0.2100
7581.00,0.2100
7580.00,0.2100
7579.00,0.2100
7578.00,0.2100
7577.00,0.2100
7576.00,0.2101
7575.00,0.2102
7574.00,0.2102
7573.00,0.2103
7572.00,0.2103
7571.00,0.2104
7570.00,0.2104
7569.00,0.2105
7568.00,0.2105
7567.00,0.2104
7566.00,0.2104
7565.00,0.2104
7564.00,0.2104
7563.00,0.2105
7562.00,0.2106
7561.00,0.2106
7560.00,0.2106
7559.00,0.2107
7558.00,0.2108
7557.00,0.2109
7556.00,0.2109
7555.00,0.2110
7554.00,0.2109
7553.00,0.2109
7552.00,0.2110
7551.00,0.2110
7550.00,0.2111
7549.00,0.2112
7548.00,0.2113
7547.00,0.2113
7546.00,0.2114
7545.00,0.2114
7544.00,0.2115
7543.00,0.2115
7542.00,0.2115
7541.00,0.2116
7540.00,0.2116
7539.00,0.2117
7538.00,0.2118
7537.00,0.2118
7536.00,0.2119
7535.00,0.2119
7534.00,0.2120
7533.00,0.2121
7532.00,0.2121
7531.00,0.2122
7530.00,0.2122
7529.00,0.2122
7528.00,0.2123
7527.00,0.2123
7526.00,0.2123
7525.00,0.2124
7524.00,0.2125
7523.00,0.2125
7522.00,0.2126
7521.00,0.2127
7520.00,0.2128
7519.00,0.2129
7518.00,0.2129
7517.00,0.2129
7516.00,0.2129
7515.00,0.2130
7514.00,0.2130
7513.00,0.2131
7512.00,0.2131
7511.00,0.2132
7510.00,0.2133
7509.00,0.2134
7508.00,0.2135
7507.00,0.2136
7506.00,0.2137
7505.00,0.2138
7504.00,0.2139
7503.00,0.2140
7502.00,0.2140
7501.00,0.2141
7500.00,0.2141
7499.00,0.2142
7498.00,0.2143
7497.00,0.2144
7496.00,0.2144
7495.00,0.2145
7494.00,0.2145
7493.00,0.2145
7492.00,0.2146
7491.00,0.2147
7490.00,0.2148
7489.00,0.2149
7488.00,0.2151
7487.00,0.2152
7486.00,0.2154
7485.00,0.2155
7484.00,0.2156
7483.00,0.2157
7482.00,0.2158
7481.00,0.2159
7480.00,0.2159
7479.00,0.2160
7478.00,0.2161
7477.00,0.2162
7476.00,0.2163
7475.00,0.2164
7474.00,0.2165
7473.00,0.2166
7472.00,0.2166
7471.00,0.2167
7470.00,0.2167
7469.00,0.2168
7468.00,0.2169
7467.00,0.2170
7466.00,0.2171
7465.00,0.2172
7464.00,0.2173
7463.00,0.2174
7462.00,0.2175
7461.00,0.2175
7460.00,0.2176
7459.00,0.2177
7458.00,0.2178
7457.00,0.2179
7456.00,0.2180
7455.00,0.2181
7454.00,0.2182
7453.00,0.2184
7452.00,0.2185
7451.00,0.2186
7450.00,0.2187
7449.00,0.2187
7448.00,0.2187
7447.00,0.2188
7446.00,0.2189
7445.00,0.2190
7444.00,0.2191
7443.00,0.2192
7442.00,0.2194
7441.00,0.2195
7440.00,0.2197
7439.00,0.2199
7438.00,0.2200
7437.00,0.2201
7436.00,0.2202
7435.00,0.2203
7434.00,0.2204
7433.00,0.2206
7432.00,0.2207
7431.00,0.2207
7430.00,0.2208
7429.00,0.2209
7428.00,0.2210
7427.00,0.2211
7426.00,0.2213
7425.00,0.2215
7424.00,0.2217
7423.00,0.2220
7422.00,0.2223
7421.00,0.2225
7420.00,0.2226
7419.00,0.2228
7418.00,0.2228
7417.00,0.2229
7416.00,0.2229
7415.00,0.2228
7414.00,0.2228
7413.00,0.2229
7412.00,0.2230
7411.00,0.2232
7410.00,0.2234
7409.00,0.2235
7408.00,0.2236
7407.00,0.2237
7406.00,0.2239
7405.00,0.2241
7404.00,0.2243
7403.00,0.2245
7402.00,0.2246
7401.00,0.2247
7400.00,0.2249
7399.00,0.2251
7398.00,0.2252
7397.00,0.2253
7396.00,0.2254
7395.00,0.2255
7394.00,0.2257
7393.00,0.2258
7392.00,0.2259
7391.00,0.2259
7390.00,0.2260
7389.00,0.2262
7388.00,0.2264
7387.00,0.2267
7386.00,0.2270
7385.00,0.2274
7384.00,0.2277
7383.00,0.2279
7382.00,0.2282
7381.00,0.2285
7380.00,0.2288
7379.00,0.2288
7378.00,0.2286
7377.00,0.2283
7376.00,0.2283
7375.00,0.2284
7374.00,0.2287
7373.00,0.2289
7372.00,0.2289
7371.00,0.2289
7370.00,0.2290
7369.00,0.2293
7368.00,0.2296
7367.00,0.2297
7366.00,0.2297
7365.00,0.2296
7364.00,0.2296
7363.00,0.2297
7362.00,0.2300
7361.00,0.2304
7360.00,0.2308
7359.00,0.2310
7358.00,0.2310
7357.00,0.2310
7356.00,0.2310
7355.00,0.2312
7354.00,0.2314
7353.00,0.2316
7352.00,0.2317
7351.00,0.2318
7350.00,0.2321
7349.00,0.2325
7348.00,0.2330
7347.00,0.2335
7346.00,0.2338
7345.00,0.2341
7344.00,0.2343
7343.00,0.2344
7342.00,0.2341
7341.00,0.2337
7340.00,0.2333
7339.00,0.2330
7338.00,0.2326
7337.00,0.2322
7336.00,0.2321
7335.00,0.2323
7334.00,0.2329
7333.00,0.2337
7332.00,0.2344
7331.00,0.2347
7330.00,0.2348
7329.00,0.2349
7328.00,0.2350
7327.00,0.2349
7326.00,0.2346
7325.00,0.2341
7324.00,0.2337
7323.00,0.2336
7322.00,0.2337
7321.00,0.2338
7320.00,0.2339
7319.00,0.2340
7318.00,0.2342
7317.00,0.2346
7316.00,0.2351
7315.00,0.2355
7314.00,0.2357
7313.00,0.2358
7312.00,0.2360
7311.00,0.2362
7310.00,0.2362
7309.00,0.2359
7308.00,0.2355
7307.00,0.2353
7306.00,0.2353
7305.00,0.2354
7304.00,0.2355
7303.00,0.2355
7302.00,0.2355
7301.00,0.2357
7300.00,0.2361
7299.00,0.2365
7298.00,0.2367
7297.00,0.2367
7296.00,0.2364
7295.00,0.2363
7294.00,0.2364
7293.00,0.2365
7292.00,0.2365
7291.00,0.2363
7290.00,0.2361
7289.00,0.2359
7288.00,0.2360
7287.00,0.2361
7286.00,0.2361
7285.00,0.2361
7284.00,0.2360
7283.00,0.2360
7282.00,0.2361
7281.00,0.2363
7280.00,0.2364
7279.00,0.2366
7278.00,0.2367
7277.00,0.2368
7276.00,0.2368
7275.00,0.2368
7274.00,0.2368
7273.00,0.2368
7272.00,0.2369
7271.00,0.2368
7270.00,0.2367
7269.00,0.2368
7268.00,0.2369
7267.00,0.2372
7266.00,0.2374
7265.00,0.2375
7264.00,0.2374
7263.00,0.2373
7262.00,0.2373
7261.00,0.2373
7260.00,0.2373
7259.00,0.2374
7258.00,0.2377
7257.00,0.2380
7256.00,0.2382
7255.00,0.2383
7254.00,0.2384
7253.00,0.2383
7252.00,0.2383
7251.00,0.2383
7250.00,0.2384
7249.00,0.2388
7248.00,0.2394
7247.00,0.2402
7246.00,0.2408
7245.00,0.2411
7244.00,0.2410
7243.00,0.2407
7242.00,0.2404
7241.00,0.2401
7240.00,0.2397
7239.00,0.2397
7238.00,0.2402
7237.00,0.2411
7236.00,0.2420
7235.00,0.2425
7234.00,0.2426
7233.00,0.2424
7232.00,0.2422
7231.00,0.2419
7230.00,0.2415
7229.00,0.2409
7228.00,0.2405
7227.00,0.2405
7226.00,0.2409
7225.00,0.2415
7224.00,0.2419
7223.00,0.2421
7222.00,0.2421
7221.00,0.2422
7220.00,0.2424
7219.00,0.2426
7218.00,0.2426
7217.00,0.2425
7216.00,0.2423
7215.00,0.2422
7214.00,0.2423
7213.00,0.2424
7212.00,0.2425
7211.00,0.2428
7210.00,0.2433
7209.00,0.2438
7208.00,0.2443
7207.00,0.2447
7206.00,0.2449
7205.00,0.2450
7204.00,0.2450
7203.00,0.2448
7202.00,0.2446
7201.00,0.2445
7200.00,0.2445
7199.00,0.2447
7198.00,0.2450
7197.00,0.2453
7196.00,0.2455
7195.00,0.2456
7194.00,0.2458
7193.00,0.2459
7192.00,0.2460
7191.00,0.2461
7190.00,0.2464
7189.00,0.2468
7188.00,0.2474
7187.00,0.2480
7186.00,0.2487
7185.00,0.2492
7184.00,0.2494
7183.00,0.2494
7182.00,0.2493
7181.00,0.2492
7180.00,0.2492
7179.00,0.2490
7178.00,0.2490
7177.00,0.2491
7176.00,0.2494
7175.00,0.2500
7174.00,0.2506
7173.00,0.2512
7172.00,0.2517
7171.00,0.2521
7170.00,0.2524
7169.00,0.2527
7168.00,0.2530
7167.00,0.2533
7166.00,0.2536
7165.00,0.2539
7164.00,0.2541
7163.00,0.2541
7162.00,0.2542
7161.00,0.2544
7160.00,0.2545
7159.00,0.2545
7158.00,0.2543
7157.00,0.2542
7156.00,0.2544
7155.00,0.2546
7154.00,0.2550
7153.00,0.2553
7152.00,0.2557
7151.00,0.2562
7150.00,0.2568
7149.00,0.2574
7148.00,0.2579
7147.00,0.2584
7146.00,0.2590
7145.00,0.2595
7144.00,0.2601
7143.00,0.2605
7142.00,0.2606
7141.00,0.2607
7140.00,0.2609
7139.00,0.2611
7138.00,0.2612
7137.00,0.2611
7136.00,0.2610
7135.00,0.2611
7134.00,0.2613
7133.00,0.2616
7132.00,0.2619
7131.00,0.2623
7130.00,0.2626
7129.00,0.2630
7128.00,0.2634
7127.00,0.2639
7126.00,0.2643
7125.00,0.2647
7124.00,0.2653
7123.00,0.2661
7122.00,0.2669
7121.00,0.2675
7120.00,0.2679
7119.00,0.2681
7118.00,0.2682
7117.00,0.2683
7116.00,0.2683
7115.00,0.2683
7114.00,0.2684
7113.00,0.2687
7112.00,0.2693
7111.00,0.2701
7110.00,0.2709
7109.00,0.2716
7108.00,0.2720
7107.00,0.2722
7106.00,0.2723
7105.00,0.2725
7104.00,0.2727
7103.00,0.2730
7102.00,0.2733
7101.00,0.2739
7100.00,0.2747
7099.00,0.2755
7098.00,0.2761
7097.00,0.2765
7096.00,0.2768
7095.00,0.2770
7094.00,0.2772
7093.00,0.2774
7092.00,0.2776
7091.00,0.2778
7090.00,0.2782
7089.00,0.2787
7088.00,0.2793
7087.00,0.2798
7086.00,0.2803
7085.00,0.2808
7084.00,0.2813
7083.00,0.2817
7082.00,0.2821
7081.00,0.2825
7080.00,0.2829
7079.00,0.2834
7078.00,0.2839
7077.00,0.2844
7076.00,0.2851
7075.00,0.2858
7074.00,0.2865
7073.00,0.2871
7072.00,0.2876
7071.00,0.2880
7070.00,0.2883
7069.00,0.2886
7068.00,0.2889
7067.00,0.2891
7066.00,0.2895
7065.00,0.2899
7064.00,0.2904
7063.00,0.2909
7062.00,0.2914
7061.00,0.2919
7060.00,0.2924
7059.00,0.2930
7058.00,0.2936
7057.00,0.2941
7056.00,0.2946
7055.00,0.2951
7054.00,0.2956
7053.00,0.2962
7052.00,0.2968
7051.00,0.2974
7050.00,0.2979
7049.00,0.2984
7048.00,0.2990
7047.00,0.2995
7046.00,0.2999
7045.00,0.3003
7044.00,0.3007
7043.00,0.3011
7042.00,0.3015
7041.00,0.3020
7040.00,0.3025
7039.00,0.3030
7038.00,0.3034
7037.00,0.3038
7036.00,0.3043
7035.00,0.3048
7034.00,0.3053
7033.00,0.3059
7032.00,0.3065
7031.00,0.3071
7030.00,0.3076
7029.00,0.3081
7028.00,0.3087
7027.00,0.3092
7026.00,0.3097
7025.00,0.3102
7024.00,0.3107
7023.00,0.3111
7022.00,0.3116
7021.00,0.3121
7020.00,0.3125
7019.00,0.3130
7018.00,0.3134
7017.00,0.3138
7016.00,0.3143
7015.00,0.3147
7014.00,0.3151
7013.00,0.3156
7012.00,0.3160
7011.00,0.3165
7010.00,0.3170
7009.00,0.3175
7008.00,0.3181
7007.00,0.3186
7006.00,0.3191
7005.00,0.3196
7004.00,0.3200
7003.00,0.3204
7002.00,0.3208
7001.00,0.3212
7000.00,0.3216
6999.00,0.3220
6998.00,0.3224
6997.00,0.3229
6996.00,0.3233
6995.00,0.3237
6994.00,0.3241
6993.00,0.3245
6992.00,0.3249
6991.00,0.3254
6990.00,0.3258
6989.00,0.3262
6988.00,0.3266
6987.00,0.3271
6986.00,0.3276
6985.00,0.3281
6984.00,0.3284
6983.00,0.3287
6982.00,0.3290
6981.00,0.3293
6980.00,0.3297
6979.00,0.3300
6978.00,0.3304
6977.00,0.3307
6976.00,0.3312
6975.00,0.3316
6974.00,0.3320
6973.00,0.3324
6972.00,0.3327
6971.00,0.3329
6970.00,0.3332
6969.00,0.3334
6968.00,0.3337
6967.00,0.3341
6966.00,0.3344
6965.00,0.3348
6964.00,0.3352
6963.00,0.3356
6962.00,0.3359
6961.00,0.3363
6960.00,0.3366
6959.00,0.3370
6958.00,0.3373
6957.00,0.3376
6956.00,0.3378
6955.00,0.3380
6954.00,0.3382
6953.00,0.3385
6952.00,0.3387
6951.00,0.3389
6950.00,0.3392
6949.00,0.3396
6948.00,0.3399
6947.00,0.3402
6946.00,0.3405
6945.00,0.3407
6944.00,0.3409
6943.00,0.3411
6942.00,0.3413
6941.00,0.3415
6940.00,0.3418
6939.00,0.3420
6938.00,0.3423
6937.00,0.3425
6936.00,0.3427
6935.00,0.3429
6934.00,0.3431
6933.00,0.3433
6932.00,0.3435
6931.00,0.3437
6930.00,0.3439
6929.00,0.3441
6928.00,0.3443
6927.00,0.3445
6926.00,0.3447
6925.00,0.3449
6924.00,0.3451
6923.00,0.3454
6922.00,0.3456
6921.00,0.3459
6920.00,0.3461
6919.00,0.3463
6918.00,0.3464
6917.00,0.3465
6916.00,0.3467
6915.00,0.3468
6914.00,0.3469
6913.00,0.3469
6912.00,0.3470
6911.00,0.3472
6910.00,0.3474
6909.00,0.3475
6908.00,0.3477
6907.00,0.3478
6906.00,0.3479
6905.00,0.3481
6904.00,0.3483
6903.00,0.3484
6902.00,0.3486
6901.00,0.3488
6900.00,0.3490
6899.00,0.3492
6898.00,0.3494
6897.00,0.3497
6896.00,0.3498
6895.00,0.3499
6894.00,0.3499
6893.00,0.3500
6892.00,0.3500
6891.00,0.3501
6890.00,0.3501
6889.00,0.3502
6888.00,0.3503
6887.00,0.3504
6886.00,0.3506
6885.00,0.3507
6884.00,0.3509
6883.00,0.3509
6882.00,0.3510
6881.00,0.3511
6880.00,0.3513
6879.00,0.3514
6878.00,0.3514
6877.00,0.3515
6876.00,0.3515
6875.00,0.3516
6874.00,0.3517
6873.00,0.3518
6872.00,0.3519
6871.00,0.3519
6870.00,0.3520
6869.00,0.3521
6868.00,0.3521
6867.00,0.3522
6866.00,0.3524
6865.00,0.3525
6864.00,0.3527
6863.00,0.3528
6862.00,0.3529
6861.00,0.3530
6860.00,0.3531
6859.00,0.3531
6858.00,0.3531
6857.00,0.3531
6856.00,0.3531
6855.00,0.3532
6854.00,0.3533
6853.00,0.3535
6852.00,0.3536
6851.00,0.3537
6850.00,0.3538
6849.00,0.3539
6848.00,0.3540
6847.00,0.3540
6846.00,0.3541
6845.00,0.3540
6844.00,0.3540
6843.00,0.3540
6842.00,0.3540
6841.00,0.3540
6840.00,0.3541
6839.00,0.3541
6838.00,0.3542
6837.00,0.3542
6836.00,0.3543
6835.00,0.3543
6834.00,0.3543
6833.00,0.3543
6832.00,0.3543
6831.00,0.3544
6830.00,0.3545
6829.00,0.3547
6828.00,0.3548
6827.00,0.3548
6826.00,0.3548
6825.00,0.3549
6824.00,0.3549
6823.00,0.3549
6822.00,0.3549
6821.00,0.3549
6820.00,0.3550
6819.00,0.3550
6818.00,0.3551
6817.00,0.3551
6816.00,0.3551
6815.00,0.3551
6814.00,0.3551
6813.00,0.3551
6812.00,0.3552
6811.00,0.3552
6810.00,0.3553
6809.00,0.3554
6808.00,0.3555
6807.00,0.3555
6806.00,0.3555
6805.00,0.3555
6804.00,0.3555
6803.00,0.3555
6802.00,0.3555
6801.00,0.3555
6800.00,0.3554
6799.00,0.3554
6798.00,0.3554
6797.00,0.3554
6796.00,0.3554
6795.00,0.3553
6794.00,0.3553
6793.00,0.3553
6792.00,0.3553
6791.00,0.3553
6790.00,0.3554
6789.00,0.3554
6788.00,0.3553
6787.00,0.3553
6786.00,0.3553
6785.00,0.3552
6784.00,0.3552
6783.00,0.3551
6782.00,0.3551
6781.00,0.3551
6780.00,0.3551
6779.00,0.3552
6778.00,0.3552
6777.00,0.3552
6776.00,0.3552
6775.00,0.3552
6774.00,0.3552
6773.00,0.3552
6772.00,0.3552
6771.00,0.3552
6770.00,0.3552
6769.00,0.3551
6768.00,0.3550
6767.00,0.3549
6766.00,0.3548
6765.00,0.3547
6764.00,0.3546
6763.00,0.3546
6762.00,0.3545
6761.00,0.3546
6760.00,0.3546
6759.00,0.3547
6758.00,0.3547
6757.00,0.3547
6756.00,0.3546
6755.00,0.3546
6754.00,0.3545
6753.00,0.3545
6752.00,0.3545
6751.00,0.3544
6750.00,0.3543
6749.00,0.3543
6748.00,0.3543
6747.00,0.3542
6746.00,0.3541
6745.00,0.3541
6744.00,0.3541
6743.00,0.3540
6742.00,0.3540
6741.00,0.3540
6740.00,0.3540
6739.00,0.3539
6738.00,0.3538
6737.00,0.3536
6736.00,0.3535
6735.00,0.3534
6734.00,0.3534
6733.00,0.3534
6732.00,0.3533
6731.00,0.3533
6730.00,0.3533
6729.00,0.3532
6728.00,0.3531
6727.00,0.3531
6726.00,0.3530
6725.00,0.3530
6724.00,0.3529
6723.00,0.3529
6722.00,0.3529
6721.00,0.3529
6720.00,0.3528
6719.00,0.3527
6718.00,0.3526
6717.00,0.3525
6716.00,0.3524
6715.00,0.3524
6714.00,0.3523
6713.00,0.3522
6712.00,0.3521
6711.00,0.3520
6710.00,0.3519
6709.00,0.3518
6708.00,0.3517
6707.00,0.3516
6706.00,0.3516
6705.00,0.3516
6704.00,0.3515
6703.00,0.3515
6702.00,0.3514
6701.00,0.3514
6700.00,0.3513
6699.00,0.3512
6698.00,0.3511
6697.00,0.3510
6696.00,0.3510
6695.00,0.3510
6694.00,0.3510
6693.00,0.3509
6692.00,0.3509
6691.00,0.3508
6690.00,0.3507
6689.00,0.3507
6688.00,0.3506
6687.00,0.3505
6686.00,0.3505
6685.00,0.3504
6684.00,0.3504
6683.00,0.3503
6682.00,0.3502
6681.00,0.3500
6680.00,0.3499
6679.00,0.3498
6678.00,0.3497
6677.00,0.3496
6676.00,0.3495
6675.00,0.3495
6674.00,0.3494
6673.00,0.3494
6672.00,0.3493
6671.00,0.3491
6670.00,0.3490
6669.00,0.3489
6668.00,0.3488
6667.00,0.3487
6666.00,0.3487
6665.00,0.3486
6664.00,0.3485
6663.00,0.3485
6662.00,0.3484
6661.00,0.3484
6660.00,0.3483
6659.00,0.3482
6658.00,0.3481
6657.00,0.3480
6656.00,0.3480
6655.00,0.3479
6654.00,0.3478
6653.00,0.3478
6652.00,0.3477
6651.00,0.3476
6650.00,0.3475
6649.00,0.3475
6648.00,0.3474
6647.00,0.3473
6646.00,0.3472
6645.00,0.3471
6644.00,0.3470
6643.00,0.3469
6642.00,0.3468
6641.00,0.3467
6640.00,0.3467
6639.00,0.3466
6638.00,0.3465
6637.00,0.3464
6636.00,0.3463
6635.00,0.3463
6634.00,0.3462
6633.00,0.3461
6632.00,0.3460
6631.00,0.3459
6630.00,0.3459
6629.00,0.3458
6628.00,0.3457
6627.00,0.3456
6626.00,0.3455
6625.00,0.3454
6624.00,0.3453
6623.00,0.3452
6622.00,0.3451
6621.00,0.3451
6620.00,0.3450
6619.00,0.3449
6618.00,0.3448
6617.00,0.3448
6616.00,0.3447
6615.00,0.3446
6614.00,0.3444
6613.00,0.3444
6612.00,0.3443
6611.00,0.3442
6610.00,0.3442
6609.00,0.3441
6608.00,0.3440
6607.00,0.3439
6606.00,0.3439
6605.00,0.3438
6604.00,0.3436
6603.00,0.3435
6602.00,0.3435
6601.00,0.3434
6600.00,0.3433
6599.00,0.3432
6598.00,0.3431
6597.00,0.3431
6596.00,0.3430
6595.00,0.3429
6594.00,0.3428
6593.00,0.3428
6592.00,0.3427
6591.00,0.3427
6590.00,0.3426
6589.00,0.3425
6588.00,0.3424
6587.00,0.3423
6586.00,0.3422
6585.00,0.3421
6584.00,0.3420
6583.00,0.3419
6582.00,0.3418
6581.00,0.3417
6580.00,0.3417
6579.00,0.3417
6578.00,0.3417
6577.00,0.3416
6576.00,0.3416
6575.00,0.3415
6574.00,0.3414
6573.00,0.3413
6572.00,0.3412
6571.00,0.3411
6570.00,0.3411
6569.00,0.3410
6568.00,0.3409
6567.00,0.3408
6566.00,0.3407
6565.00,0.3406
6564.00,0.3406
6563.00,0.3405
6562.00,0.3405
6561.00,0.3404
6560.00,0.3403
6559.00,0.3403
6558.00,0.3403
6557.00,0.3402
6556.00,0.3401
6555.00,0.3400
6554.00,0.3400
6553.00,0.3399
6552.00,0.3398
6551.00,0.3398
6550.00,0.3398
6549.00,0.3398
6548.00,0.3397
6547.00,0.3397
6546.00,0.3396
6545.00,0.3395
6544.00,0.3394
6543.00,0.3394
6542.00,0.3393
6541.00,0.3392
6540.00,0.3392
6539.00,0.3392
6538.00,0.3391
6537.00,0.3391
6536.00,0.3391
6535.00,0.3391
6534.00,0.3390
6533.00,0.3390
6532.00,0.3390
6531.00,0.3389
6530.00,0.3389
6529.00,0.3388
6528.00,0.3388
6527.00,0.3387
6526.00,0.3387
6525.00,0.3387
6524.00,0.3387
6523.00,0.3386
6522.00,0.3386
6521.00,0.3385
6520.00,0.3385
6519.00,0.3384
6518.00,0.3384
6517.00,0.3383
6516.00,0.3383
6515.00,0.3383
6514.00,0.3383
6513.00,0.3382
6512.00,0.3382
6511.00,0.3383
6510.00,0.3383
6509.00,0.3383
6508.00,0.3383
6507.00,0.3383
6506.00,0.3383
6505.00,0.3383
6504.00,0.3382
6503.00,0.3382
6502.00,0.3382
6501.00,0.3382
6500.00,0.3381
6499.00,0.3381
6498.00,0.3381
6497.00,0.3380
6496.00,0.3380
6495.00,0.3380
6494.00,0.3380
6493.00,0.3380
6492.00,0.3380
6491.00,0.3380
6490.00,0.3380
6489.00,0.3380
6488.00,0.3379
6487.00,0.3379
6486.00,0.3378
6485.00,0.3378
6484.00,0.3377
6483.00,0.3377
6482.00,0.3376
6481.00,0.3376
6480.00,0.3376
6479.00,0.3377
6478.00,0.3377
6477.00,0.3378
6476.00,0.3378
6475.00,0.3378
6474.00,0.3378
6473.00,0.3379
6472.00,0.3379
6471.00,0.3379
6470.00,0.3379
6469.00,0.3379
6468.00,0.3379
6467.00,0.3379
6466.00,0.3379
6465.00,0.3379
6464.00,0.3379
6463.00,0.3379
6462.00,0.3379
6461.00,0.3379
6460.00,0.3380
6459.00,0.3380
6458.00,0.3380
6457.00,0.3380
6456.00,0.3380
6455.00,0.3379
6454.00,0.3379
6453.00,0.3379
6452.00,0.3379
6451.00,0.3379
6450.00,0.3379
6449.00,0.3380
6448.00,0.3380
6447.00,0.3380
6446.00,0.3381
6445.00,0.3381
6444.00,0.3381
6443.00,0.3382
6442.00,0.3382
6441.00,0.3382
6440.00,0.3382
6439.00,0.3382
6438.00,0.3381
6437.00,0.3381
6436.00,0.3381
6435.00,0.3381
6434.00,0.3382
6433.00,0.3382
6432.00,0.3383
6431.00,0.3384
6430.00,0.3384
6429.00,0.3384
6428.00,0.3383
6427.00,0.3383
6426.00,0.3383
6425.00,0.3383
6424.00,0.3383
6423.00,0.3383
6422.00,0.3384
6421.00,0.3384
6420.00,0.3384
6419.00,0.3385
6418.00,0.3385
6417.00,0.3385
6416.00,0.3385
6415.00,0.3385
6414.00,0.3385
6413.00,0.3385
6412.00,0.3385
6411.00,0.3385
6410.00,0.3385
6409.00,0.3384
6408.00,0.3384
6407.00,0.3384
6406.00,0.3385
6405.00,0.3385
6404.00,0.3385
6403.00,0.3385
6402.00,0.3385
6401.00,0.3386
6400.00,0.3386
6399.00,0.3386
6398.00,0.3386
6397.00,0.3386
6396.00,0.3386
6395.00,0.3386
6394.00,0.3386
6393.00,0.3386
6392.00,0.3386
6391.00,0.3386
6390.00,0.3386
6389.00,0.3386
6388.00,0.3386
6387.00,0.3386
6386.00,0.3386
6385.00,0.3386
6384.00,0.3386
6383.00,0.3386
6382.00,0.3386
6381.00,0.3386
6380.00,0.3386
6379.00,0.3386
6378.00,0.3386
6377.00,0.3387
6376.00,0.3387
6375.00,0.3387
6374.00,0.3387
6373.00,0.3387
6372.00,0.3387
6371.00,0.3387
6370.00,0.3387
6369.00,0.3386
6368.00,0.3386
6367.00,0.3387
6366.00,0.3387
6365.00,0.3387
6364.00,0.3387
6363.00,0.3387
6362.00,0.3387
6361.00,0.3387
6360.00,0.3387
6359.00,0.3387
6358.00,0.3387
6357.00,0.3387
6356.00,0.3387
6355.00,0.3387
6354.00,0.3387
6353.00,0.3386
6352.00,0.3386
6351.00,0.3386
6350.00,0.3386
6349.00,0.3385
6348.00,0.3385
6347.00,0.3385
6346.00,0.3385
6345.00,0.3385
6344.00,0.3385
6343.00,0.3385
6342.00,0.3385
6341.00,0.3385
6340.00,0.3385
6339.00,0.3385
6338.00,0.3385
6337.00,0.3384
6336.00,0.3384
6335.00,0.3384
6334.00,0.3383
6333.00,0.3383
6332.00,0.3383
6331.00,0.3383
6330.00,0.3383
6329.00,0.3383
6328.00,0.3383
6327.00,0.3382
6326.00,0.3381
6325.00,0.3381
6324.00,0.3380
6323.00,0.3380
6322.00,0.3379
6321.00,0.3379
6320.00,0.3379
6319.00,0.3378
6318.00,0.3378
6317.00,0.3378
6316.00,0.3377
6315.00,0.3377
6314.00,0.3377
6313.00,0.3377
6312.00,0.3376
6311.00,0.3376
6310.00,0.3375
6309.00,0.3375
6308.00,0.3374
6307.00,0.3374
6306.00,0.3374
6305.00,0.3373
6304.00,0.3373
6303.00,0.3372
6302.00,0.3372
6301.00,0.3371
6300.00,0.3370
6299.00,0.3369
6298.00,0.3369
6297.00,0.3368
6296.00,0.3367
6295.00,0.3367
6294.00,0.3366
6293.00,0.3366
6292.00,0.3365
6291.00,0.3365
6290.00,0.3365
6289.00,0.3364
6288.00,0.3364
6287.00,0.3363
6286.00,0.3362
6285.00,0.3362
6284.00,0.3361
6283.00,0.3360
6282.00,0.3360
6281.00,0.3359
6280.00,0.3358
6279.00,0.3358
6278.00,0.3357
6277.00,0.3356
6276.00,0.3355
6275.00,0.3354
6274.00,0.3353
6273.00,0.3352
6272.00,0.3352
6271.00,0.3351
6270.00,0.3351
6269.00,0.3350
6268.00,0.3349
6267.00,0.3349
6266.00,0.3348
6265.00,0.3347
6264.00,0.3346
6263.00,0.3346
6262.00,0.3345
6261.00,0.3345
6260.00,0.3345
6259.00,0.3344
6258.00,0.3343
6257.00,0.3343
6256.00,0.3342
6255.00,0.3341
6254.00,0.3340
6253.00,0.3339
6252.00,0.3337
6251.00,0.3336
6250.00,0.3335
6249.00,0.3334
6248.00,0.3334
6247.00,0.3334
6246.00,0.3333
6245.00,0.3332
6244.00,0.3331
6243.00,0.3329
6242.00,0.3328
6241.00,0.3327
6240.00,0.3326
6239.00,0.3325
6238.00,0.3324
6237.00,0.3324
6236.00,0.3323
6235.00,0.3323
6234.00,0.3322
6233.00,0.3321
6232.00,0.3320
6231.00,0.3319
6230.00,0.3318
6229.00,0.3317
6228.00,0.3316
6227.00,0.3314
6226.00,0.3314
6225.00,0.3313
6224.00,0.3312
6223.00,0.3311
6222.00,0.3310
6221.00,0.3310
6220.00,0.3309
6219.00,0.3308
6218.00,0.3307
6217.00,0.3306
6216.00,0.3305
6215.00,0.3304
6214.00,0.3303
6213.00,0.3301
6212.00,0.3300
6211.00,0.3299
6210.00,0.3299
6209.00,0.3298
6208.00,0.3297
6207.00,0.3296
6206.00,0.3295
6205.00,0.3294
6204.00,0.3293
6203.00,0.3292
6202.00,0.3291
6201.00,0.3290
6200.00,0.3290
6199.00,0.3289
6198.00,0.3288
6197.00,0.3287
6196.00,0.3287
6195.00,0.3286
6194.00,0.3284
6193.00,0.3283
6192.00,0.3282
6191.00,0.3281
6190.00,0.3280
6189.00,0.3279
6188.00,0.3278
6187.00,0.3277
6186.00,0.3276
6185.00,0.3275
6184.00,0.3274
6183.00,0.3273
6182.00,0.3272
6181.00,0.3271
6180.00,0.3270
6179.00,0.3269
6178.00,0.3268
6177.00,0.3267
6176.00,0.3266
6175.00,0.3265
6174.00,0.3265
6173.00,0.3264
6172.00,0.3263
6171.00,0.3262
6170.00,0.3261
6169.00,0.3260
6168.00,0.3258
6167.00,0.3257
6166.00,0.3256
6165.00,0.3256
6164.00,0.3255
6163.00,0.3255
6162.00,0.3254
6161.00,0.3252
6160.00,0.3251
6159.00,0.3249
6158.00,0.3248
6157.00,0.3247
6156.00,0.3247
6155.00,0.3246
6154.00,0.3246
6153.00,0.3245
6152.00,0.3244
6151.00,0.3243
6150.00,0.3241
6149.00,0.3240
6148.00,0.3239
6147.00,0.3238
6146.00,0.3237
6145.00,0.3236
6144.00,0.3235
6143.00,0.3234
6142.00,0.3233
6141.00,0.3232
6140.00,0.3230
6139.00,0.3229
6138.00,0.3228
6137.00,0.3227
6136.00,0.3225
6135.00,0.3224
6134.00,0.3223
6133.00,0.3223
6132.00,0.3222
6131.00,0.3222
6130.00,0.3221
6129.00,0.3220
6128.00,0.3219
6127.00,0.3217
6126.00,0.3216
6125.00,0.3215
6124.00,0.3214
6123.00,0.3213
6122.00,0.3213
6121.00,0.3212
6120.00,0.3211
6119.00,0.3210
6118.00,0.3209
6117.00,0.3208
6116.00,0.3208
6115.00,0.3207
6114.00,0.3207
6113.00,0.3206
6112.00,0.3205
6111.00,0.3204
6110.00,0.3202
6109.00,0.3201
6108.00,0.3200
6107.00,0.3200
6106.00,0.3199
6105.00,0.3198
6104.00,0.3197
6103.00,0.3196
6102.00,0.3195
6101.00,0.3194
6100.00,0.3193
6099.00,0.3192
6098.00,0.3192
6097.00,0.3191
6096.00,0.3191
6095.00,0.3190
6094.00,0.3189
6093.00,0.3188
6092.00,0.3187
6091.00,0.3186
6090.00,0.3185
6089.00,0.3184
6088.00,0.3183
6087.00,0.3181
6086.00,0.3181
6085.00,0.3180
6084.00,0.3179
6083.00,0.3178
6082.00,0.3178
6081.00,0.3177
6080.00,0.3176
6079.00,0.3175
6078.00,0.3174
6077.00,0.3173
6076.00,0.3172
6075.00,0.3171
6074.00,0.3171
6073.00,0.3170
6072.00,0.3170
6071.00,0.3169
6070.00,0.3168
6069.00,0.3167
6068.00,0.3167
6067.00,0.3166
6066.00,0.3165
6065.00,0.3165
6064.00,0.3164
6063.00,0.3163
6062.00,0.3163
6061.00,0.3162
6060.00,0.3161
6059.00,0.3161
6058.00,0.3160
6057.00,0.3159
6056.00,0.3158
6055.00,0.3157
6054.00,0.3156
6053.00,0.3155
6052.00,0.3155
6051.00,0.3154
6050.00,0.3154
6049.00,0.3153
6048.00,0.3153
6047.00,0.3152
6046.00,0.3151
6045.00,0.3151
6044.00,0.3150
6043.00,0.3149
6042.00,0.3149
6041.00,0.3148
6040.00,0.3148
6039.00,0.3147
6038.00,0.3146
6037.00,0.3145
6036.00,0.3145
6035.00,0.3144
6034.00,0.3144
6033.00,0.3143
6032.00,0.3143
6031.00,0.3143
6030.00,0.3143
6029.00,0.3143
6028.00,0.3142
6027.00,0.3142
6026.00,0.3141
6025.00,0.3141
6024.00,0.3140
6023.00,0.3139
6022.00,0.3139
6021.00,0.3139
6020.00,0.3138
6019.00,0.3138
6018.00,0.3138
6017.00,0.3137
6016.00,0.3137
6015.00,0.3136
6014.00,0.3136
6013.00,0.3135
6012.00,0.3135
6011.00,0.3135
6010.00,0.3135
6009.00,0.3134
6008.00,0.3134
6007.00,0.3134
6006.00,0.3134
6005.00,0.3134
6004.00,0.3134
6003.00,0.3134
6002.00,0.3134
6001.00,0.3134
6000.00,0.3134
5999.00,0.3134
5998.00,0.3134
5997.00,0.3134
5996.00,0.3134
5995.00,0.3135
5994.00,0.3135
5993.00,0.3135
5992.00,0.3135
5991.00,0.3135
5990.00,0.3134
5989.00,0.3134
5988.00,0.3134
5987.00,0.3134
5986.00,0.3134
5985.00,0.3135
5984.00,0.3135
5983.00,0.3136
5982.00,0.3136
5981.00,0.3136
5980.00,0.3136
5979.00,0.3136
5978.00,0.3136
5977.00,0.3136
5976.00,0.3137
5975.00,0.3137
5974.00,0.3137
5973.00,0.3138
5972.00,0.3139
5971.00,0.3140
5970.00,0.3141
5969.00,0.3141
5968.00,0.3142
5967.00,0.3143
5966.00,0.3144
5965.00,0.3145
5964.00,0.3146
5963.00,0.3147
5962.00,0.3148
5961.00,0.3149
5960.00,0.3150
5959.00,0.3151
5958.00,0.3152
5957.00,0.3153
5956.00,0.3154
5955.00,0.3155
5954.00,0.3157
5953.00,0.3158
5952.00,0.3160
5951.00,0.3161
5950.00,0.3163
5949.00,0.3164
5948.00,0.3166
5947.00,0.3167
5946.00,0.3168
5945.00,0.3169
5944.00,0.3171
5943.00,0.3172
5942.00,0.3174
5941.00,0.3175
5940.00,0.3177
5939.00,0.3178
5938.00,0.3180
5937.00,0.3181
5936.00,0.3183
5935.00,0.3184
5934.00,0.3186
5933.00,0.3187
5932.00,0.3189
5931.00,0.3190
5930.00,0.3192
5929.00,0.3194
5928.00,0.3195
5927.00,0.3197
5926.00,0.3198
5925.00,0.3199
5924.00,0.3200
5923.00,0.3201
5922.00,0.3202
5921.00,0.3204
5920.00,0.3205
5919.00,0.3206
5918.00,0.3208
5917.00,0.3209
5916.00,0.3209
5915.00,0.3210
5914.00,0.3211
5913.00,0.3211
5912.00,0.3212
5911.00,0.3213
5910.00,0.3214
5909.00,0.3214
5908.00,0.3215
5907.00,0.3215
5906.00,0.3216
5905.00,0.3216
5904.00,0.3217
5903.00,0.3217
5902.00,0.3218
5901.00,0.3218
5900.00,0.3218
5899.00,0.3218
5898.00,0.3219
5897.00,0.3219
5896.00,0.3219
5895.00,0.3219
5894.00,0.3219
5893.00,0.3220
5892.00,0.3220
5891.00,0.3221
5890.00,0.3222
5889.00,0.3222
5888.00,0.3223
5887.00,0.3223
5886.00,0.3224
5885.00,0.3224
5884.00,0.3224
5883.00,0.3224
5882.00,0.3224
5881.00,0.3225
5880.00,0.3225
5879.00,0.3226
5878.00,0.3227
5877.00,0.3228
5876.00,0.3228
5875.00,0.3229
5874.00,0.3230
5873.00,0.3230
5872.00,0.3231
5871.00,0.3231
5870.00,0.3231
5869.00,0.3232
5868.00,0.3232
5867.00,0.3232
5866.00,0.3233
5865.00,0.3233
5864.00,0.3234
5863.00,0.3235
5862.00,0.3236
5861.00,0.3237
5860.00,0.3237
5859.00,0.3238
5858.00,0.3238
5857.00,0.3238
5856.00,0.3239
5855.00,0.3240
5854.00,0.3240
5853.00,0.3241
5852.00,0.3242
5851.00,0.3243
5850.00,0.3244
5849.00,0.3245
5848.00,0.3246
5847.00,0.3247
5846.00,0.3248
5845.00,0.3248
5844.00,0.3249
5843.00,0.3250
5842.00,0.3251
5841.00,0.3252
5840.00,0.3253
5839.00,0.3253
5838.00,0.3254
5837.00,0.3255
5836.00,0.3256
5835.00,0.3257
5834.00,0.3258
5833.00,0.3259
5832.00,0.3260
5831.00,0.3262
5830.00,0.3263
5829.00,0.3265
5828.00,0.3266
5827.00,0.3268
5826.00,0.3269
5825.00,0.3270
5824.00,0.3271
5823.00,0.3272
5822.00,0.3273
5821.00,0.3274
5820.00,0.3275
5819.00,0.3276
5818.00,0.3278
5817.00,0.3279
5816.00,0.3281
5815.00,0.3282
5814.00,0.3283
5813.00,0.3284
5812.00,0.3285
5811.00,0.3287
5810.00,0.3288
5809.00,0.3289
5808.00,0.3290
5807.00,0.3291
5806.00,0.3292
5805.00,0.3294
5804.00,0.3295
5803.00,0.3296
5802.00,0.3297
5801.00,0.3297
5800.00,0.3298
5799.00,0.3299
5798.00,0.3300
5797.00,0.3301
5796.00,0.3303
5795.00,0.3304
5794.00,0.3305
5793.00,0.3306
5792.00,0.3307
5791.00,0.3308
5790.00,0.3309
5789.00,0.3310
5788.00,0.3310
5787.00,0.3311
5786.00,0.3312
5785.00,0.3313
5784.00,0.3314
5783.00,0.3314
5782.00,0.3315
5781.00,0.3316
5780.00,0.3316
5779.00,0.3317
5778.00,0.3317
5777.00,0.3317
5776.00,0.3318
5775.00,0.3319
5774.00,0.3319
5773.00,0.3320
5772.00,0.3320
5771.00,0.3321
5770.00,0.3321
5769.00,0.3321
5768.00,0.3321
5767.00,0.3322
5766.00,0.3322
5765.00,0.3323
5764.00,0.3323
5763.00,0.3324
5762.00,0.3324
5761.00,0.3324
5760.00,0.3324
5759.00,0.3324
5758.00,0.3324
5757.00,0.3324
5756.00,0.3325
5755.00,0.3325
5754.00,0.3325
5753.00,0.3325
5752.00,0.3325
5751.00,0.3326
5750.00,0.3326
5749.00,0.3327
5748.00,0.3328
5747.00,0.3328
5746.00,0.3328
5745.00,0.3328
5744.00,0.3328
5743.00,0.3328
5742.00,0.3329
5741.00,0.3329
5740.00,0.3329
5739.00,0.3330
5738.00,0.3330
5737.00,0.3330
5736.00,0.3330
5735.00,0.3330
5734.00,0.3330
5733.00,0.3330
5732.00,0.3330
5731.00,0.3330
5730.00,0.3330
5729.00,0.3330
5728.00,0.3330
5727.00,0.3330
5726.00,0.3331
5725.00,0.3331
5724.00,0.3332
5723.00,0.3332
5722.00,0.3332
5721.00,0.3332
5720.00,0.3332
5719.00,0.3332
5718.00,0.3332
5717.00,0.3333
5716.00,0.3333
5715.00,0.3333
5714.00,0.3333
5713.00,0.3334
5712.00,0.3334
5711.00,0.3335
5710.00,0.3335
5709.00,0.3335
5708.00,0.3335
5707.00,0.3334
5706.00,0.3334
5705.00,0.3335
5704.00,0.3335
5703.00,0.3336
5702.00,0.3336
5701.00,0.3336
5700.00,0.3337
5699.00,0.3337
5698.00,0.3337
5697.00,0.3337
5696.00,0.3337
5695.00,0.3338
5694.00,0.3338
5693.00,0.3338
5692.00,0.3339
5691.00,0.3339
5690.00,0.3339
5689.00,0.3340
5688.00,0.3340
5687.00,0.3340
5686.00,0.3341
5685.00,0.3342
5684.00,0.3342
5683.00,0.3342
5682.00,0.3342
5681.00,0.3342
5680.00,0.3342
5679.00,0.3342
5678.00,0.3342
5677.00,0.3342
5676.00,0.3342
5675.00,0.3342
5674.00,0.3342
5673.00,0.3343
5672.00,0.3343
5671.00,0.3343
5670.00,0.3343
5669.00,0.3344
5668.00,0.3344
5667.00,0.3344
5666.00,0.3344
5665.00,0.3344
5664.00,0.3343
5663.00,0.3343
5662.00,0.3343
5661.00,0.3343
5660.00,0.3343
5659.00,0.3343
5658.00,0.3342
5657.00,0.3342
5656.00,0.3342
5655.00,0.3342
5654.00,0.3342
5653.00,0.3342
5652.00,0.3342
5651.00,0.3342
5650.00,0.3342
5649.00,0.3342
5648.00,0.3342
5647.00,0.3342
5646.00,0.3342
5645.00,0.3341
5644.00,0.3341
5643.00,0.3341
5642.00,0.3341
5641.00,0.3341
5640.00,0.3341
5639.00,0.3341
5638.00,0.3341
5637.00,0.3341
5636.00,0.3341
5635.00,0.3340
5634.00,0.3340
5633.00,0.3340
5632.00,0.3340
5631.00,0.3340
5630.00,0.3339
5629.00,0.3339
5628.00,0.3339
5627.00,0.3339
5626.00,0.3339
5625.00,0.3339
5624.00,0.3338
5623.00,0.3338
5622.00,0.3337
5621.00,0.3336
5620.00,0.3336
5619.00,0.3336
5618.00,0.3335
5617.00,0.3335
5616.00,0.3335
5615.00,0.3335
5614.00,0.3335
5613.00,0.3334
5612.00,0.3334
5611.00,0.3333
5610.00,0.3333
5609.00,0.3333
5608.00,0.3333
5607.00,0.3333
5606.00,0.3333
5605.00,0.3333
5604.00,0.3332
5603.00,0.3332
5602.00,0.3331
5601.00,0.3330
5600.00,0.3330
5599.00,0.3329
5598.00,0.3329
5597.00,0.3328
5596.00,0.3328
5595.00,0.3327
5594.00,0.3326
5593.00,0.3326
5592.00,0.3325
5591.00,0.3324
5590.00,0.3324
5589.00,0.3324
5588.00,0.3323
5587.00,0.3323
5586.00,0.3323
5585.00,0.3322
5584.00,0.3322
5583.00,0.3321
5582.00,0.3321
5581.00,0.3321
5580.00,0.3320
5579.00,0.3320
5578.00,0.3319
5577.00,0.3318
5576.00,0.3317
5575.00,0.3316
5574.00,0.3315
5573.00,0.3315
5572.00,0.3314
5571.00,0.3314
5570.00,0.3314
5569.00,0.3314
5568.00,0.3313
5567.00,0.3312
5566.00,0.3312
5565.00,0.3311
5564.00,0.3310
5563.00,0.3309
5562.00,0.3308
5561.00,0.3308
5560.00,0.3308
5559.00,0.3307
5558.00,0.3307
5557.00,0.3307
5556.00,0.3307
5555.00,0.3307
5554.00,0.3306
5553.00,0.3306
5552.00,0.3305
5551.00,0.3304
5550.00,0.3304
5549.00,0.3303
5548.00,0.3301
5547.00,0.3300
5546.00,0.3299
5545.00,0.3298
5544.00,0.3297
5543.00,0.3296
5542.00,0.3296
5541.00,0.3297
5540.00,0.3298
5539.00,0.3298
5538.00,0.3298
5537.00,0.3297
5536.00,0.3296
5535.00,0.3294
5534.00,0.3292
5533.00,0.3291
5532.00,0.3291
5531.00,0.3290
5530.00,0.3289
5529.00,0.3289
5528.00,0.3288
5527.00,0.3288
5526.00,0.3289
5525.00,0.3290
5524.00,0.3290
5523.00,0.3290
5522.00,0.3290
5521.00,0.3289
5520.00,0.3288
5519.00,0.3287
5518.00,0.3286
5517.00,0.3285
5516.00,0.3283
5515.00,0.3282
5514.00,0.3281
5513.00,0.3281
5512.00,0.3283
5511.00,0.3286
5510.00,0.3288
5509.00,0.3288
5508.00,0.3287
5507.00,0.3285
5506.00,0.3282
5505.00,0.3280
5504.00,0.3278
5503.00,0.3277
5502.00,0.3277
5501.00,0.3277
5500.00,0.3276
5499.00,0.3276
5498.00,0.3279
5497.00,0.3283
5496.00,0.3287
5495.00,0.3290
5494.00,0.3292
5493.00,0.3292
5492.00,0.3290
5491.00,0.3287
5490.00,0.3282
5489.00,0.3277
5488.00,0.3274
5487.00,0.3270
5486.00,0.3267
5485.00,0.3263
5484.00,0.3261
5483.00,0.3260
5482.00,0.3261
5481.00,0.3263
5480.00,0.3269
5479.00,0.3275
5478.00,0.3281
5477.00,0.3282
5476.00,0.3280
5475.00,0.3275
5474.00,0.3269
5473.00,0.3265
5472.00,0.3262
5471.00,0.3263
5470.00,0.3265
5469.00,0.3267
5468.00,0.3267
5467.00,0.3265
5466.00,0.3265
5465.00,0.3266
5464.00,0.3267
5463.00,0.3267
5462.00,0.3265
5461.00,0.3263
5460.00,0.3259
5459.00,0.3256
5458.00,0.3253
5457.00,0.3249
5456.00,0.3247
5455.00,0.3246
5454.00,0.3247
5453.00,0.3248
5452.00,0.3249
5451.00,0.3253
5450.00,0.3257
5449.00,0.3260
5448.00,0.3261
5447.00,0.3260
5446.00,0.3260
5445.00,0.3260
5444.00,0.3259
5443.00,0.3255
5442.00,0.3249
5441.00,0.3244
5440.00,0.3241
5439.00,0.3240
5438.00,0.3241
5437.00,0.3241
5436.00,0.3242
5435.00,0.3242
5434.00,0.3243
5433.00,0.3243
5432.00,0.3244
5431.00,0.3245
5430.00,0.3244
5429.00,0.3240
5428.00,0.3233
5427.00,0.3225
5426.00,0.3218
5425.00,0.3214
5424.00,0.3212
5423.00,0.3211
5422.00,0.3211
5421.00,0.3210
5420.00,0.3211
5419.00,0.3215
5418.00,0.3221
5417.00,0.3228
5416.00,0.3235
5415.00,0.3240
5414.00,0.3243
5413.00,0.3242
5412.00,0.3236
5411.00,0.3227
5410.00,0.3219
5409.00,0.3213
5408.00,0.3208
5407.00,0.3204
5406.00,0.3202
5405.00,0.3201
5404.00,0.3200
5403.00,0.3199
5402.00,0.3199
5401.00,0.3199
5400.00,0.3202
5399.00,0.3207
5398.00,0.3213
5397.00,0.3217
5396.00,0.3218
5395.00,0.3214
5394.00,0.3208
5393.00,0.3202
5392.00,0.3198
5391.00,0.3197
5390.00,0.3199
5389.00,0.3204
5388.00,0.3209
5387.00,0.3210
5386.00,0.3209
5385.00,0.3204
5384.00,0.3200
5383.00,0.3196
5382.00,0.3197
5381.00,0.3202
5380.00,0.3208
5379.00,0.3214
5378.00,0.3218
5377.00,0.3217
5376.00,0.3214
5375.00,0.3207
5374.00,0.3201
5373.00,0.3196
5372.00,0.3195
5371.00,0.3194
5370.00,0.3195
5369.00,0.3198
5368.00,0.3202
5367.00,0.3206
5366.00,0.3209
5365.00,0.3210
5364.00,0.3209
5363.00,0.3207
5362.00,0.3204
5361.00,0.3202
5360.00,0.3203
5359.00,0.3208
5358.00,0.3217
5357.00,0.3227
5356.00,0.3236
5355.00,0.3240
5354.00,0.3240
5353.00,0.3237
5352.00,0.3233
5351.00,0.3230
5350.00,0.3232
5349.00,0.3239
5348.00,0.3249
5347.00,0.3256
5346.00,0.3257
5345.00,0.3255
5344.00,0.3252
5343.00,0.3252
5342.00,0.3254
5341.00,0.3259
5340.00,0.3264
5339.00,0.3267
5338.00,0.3266
5337.00,0.3262
5336.00,0.3258
5335.00,0.3255
5334.00,0.3256
5333.00,0.3259
5332.00,0.3265
5331.00,0.3270
5330.00,0.3274
5329.00,0.3276
5328.00,0.3276
5327.00,0.3276
5326.00,0.3275
5325.00,0.3274
5324.00,0.3274
5323.00,0.3276
5322.00,0.3281
5321.00,0.3286
5320.00,0.3291
5319.00,0.3296
5318.00,0.3301
5317.00,0.3305
5316.00,0.3309
5315.00,0.3313
5314.00,0.3317
5313.00,0.3322
5312.00,0.3330
5311.00,0.3339
5310.00,0.3347
5309.00,0.3354
5308.00,0.3360
5307.00,0.3364
5306.00,0.3367
5305.00,0.3371
5304.00,0.3376
5303.00,0.3382
5302.00,0.3390
5301.00,0.3396
5300.00,0.3402
5299.00,0.3407
5298.00,0.3413
5297.00,0.3420
5296.00,0.3429
5295.00,0.3440
5294.00,0.3453
5293.00,0.3465
5292.00,0.3476
5291.00,0.3485
5290.00,0.3493
5289.00,0.3501
5288.00,0.3508
5287.00,0.3517
5286.00,0.3527
5285.00,0.3538
5284.00,0.3549
5283.00,0.3559
5282.00,0.3569
5281.00,0.3578
5280.00,0.3589
5279.00,0.3600
5278.00,0.3610
5277.00,0.3621
5276.00,0.3633
5275.00,0.3646
5274.00,0.3661
5273.00,0.3676
5272.00,0.3692
5271.00,0.3707
5270.00,0.3723
5269.00,0.3740
5268.00,0.3757
5267.00,0.3775
5266.00,0.3792
5265.00,0.3807
5264.00,0.3820
5263.00,0.3830
5262.00,0.3838
5261.00,0.3846
5260.00,0.3858
5259.00,0.3873
5258.00,0.3891
5257.00,0.3908
5256.00,0.3924
5255.00,0.3938
5254.00,0.3950
5253.00,0.3963
5252.00,0.3979
5251.00,0.3997
5250.00,0.4017
5249.00,0.4037
5248.00,0.4054
5247.00,0.4067
5246.00,0.4076
5245.00,0.4083
5244.00,0.4091
5243.00,0.4101
5242.00,0.4111
5241.00,0.4122
5240.00,0.4134
5239.00,0.4148
5238.00,0.4163
5237.00,0.4177
5236.00,0.4192
5235.00,0.4207
5234.00,0.4222
5233.00,0.4236
5232.00,0.4248
5231.00,0.4260
5230.00,0.4273
5229.00,0.4287
5228.00,0.4301
5227.00,0.4314
5226.00,0.4325
5225.00,0.4333
5224.00,0.4339
5223.00,0.4345
5222.00,0.4354
5221.00,0.4365
5220.00,0.4377
5219.00,0.4387
5218.00,0.4395
5217.00,0.4402
5216.00,0.4409
5215.00,0.4417
5214.00,0.4427
5213.00,0.4440
5212.00,0.4455
5211.00,0.4471
5210.00,0.4487
5209.00,0.4501
5208.00,0.4509
5207.00,0.4511
5206.00,0.4510
5205.00,0.4508
5204.00,0.4508
5203.00,0.4512
5202.00,0.4519
5201.00,0.4528
5200.00,0.4539
5199.00,0.4547
5198.00,0.4553
5197.00,0.4557
5196.00,0.4560
5195.00,0.4562
5194.00,0.4566
5193.00,0.4572
5192.00,0.4578
5191.00,0.4584
5190.00,0.4591
5189.00,0.4596
5188.00,0.4602
5187.00,0.4606
5186.00,0.4609
5185.00,0.4611
5184.00,0.4612
5183.00,0.4613
5182.00,0.4613
5181.00,0.4615
5180.00,0.4618
5179.00,0.4620
5178.00,0.4622
5177.00,0.4622
5176.00,0.4623
5175.00,0.4625
5174.00,0.4627
5173.00,0.4628
5172.00,0.4630
5171.00,0.4630
5170.00,0.4630
5169.00,0.4630
5168.00,0.4630
5167.00,0.4632
5166.00,0.4633
5165.00,0.4634
5164.00,0.4634
5163.00,0.4633
5162.00,0.4631
5161.00,0.4630
5160.00,0.4630
5159.00,0.4630
5158.00,0.4630
5157.00,0.4628
5156.00,0.4625
5155.00,0.4622
5154.00,0.4619
5153.00,0.4616
5152.00,0.4613
5151.00,0.4611
5150.00,0.4608
5149.00,0.4605
5148.00,0.4602
5147.00,0.4600
5146.00,0.4599
5145.00,0.4598
5144.00,0.4597
5143.00,0.4595
5142.00,0.4591
5141.00,0.4587
5140.00,0.4583
5139.00,0.4579
5138.00,0.4575
5137.00,0.4572
5136.00,0.4569
5135.00,0.4566
5134.00,0.4563
5133.00,0.4559
5132.00,0.4555
5131.00,0.4551
5130.00,0.4546
5129.00,0.4542
5128.00,0.4538
5127.00,0.4534
5126.00,0.4530
5125.00,0.4527
5124.00,0.4524
5123.00,0.4521
5122.00,0.4518
5121.00,0.4515
5120.00,0.4511
5119.00,0.4507
5118.00,0.4503
5117.00,0.4499
5116.00,0.4495
5115.00,0.4491
5114.00,0.4487
5113.00,0.4483
5112.00,0.4479
5111.00,0.4475
5110.00,0.4471
5109.00,0.4467
5108.00,0.4463
5107.00,0.4459
5106.00,0.4455
5105.00,0.4451
5104.00,0.4447
5103.00,0.4443
5102.00,0.4440
5101.00,0.4436
5100.00,0.4433
5099.00,0.4430
5098.00,0.4427
5097.00,0.4424
5096.00,0.4420
5095.00,0.4416
5094.00,0.4412
5093.00,0.4408
5092.00,0.4404
5091.00,0.4401
5090.00,0.4397
5089.00,0.4394
5088.00,0.4391
5087.00,0.4388
5086.00,0.4385
5085.00,0.4382
5084.00,0.4379
5083.00,0.4377
5082.00,0.4374
5081.00,0.4370
5080.00,0.4367
5079.00,0.4364
5078.00,0.4360
5077.00,0.4357
5076.00,0.4354
5075.00,0.4352
5074.00,0.4349
5073.00,0.4347
5072.00,0.4344
5071.00,0.4341
5070.00,0.4337
5069.00,0.4334
5068.00,0.4331
5067.00,0.4328
5066.00,0.4325
5065.00,0.4322
5064.00,0.4318
5063.00,0.4315
5062.00,0.4312
5061.00,0.4309
5060.00,0.4307
5059.00,0.4303
5058.00,0.4300
5057.00,0.4296
5056.00,0.4292
5055.00,0.4289
5054.00,0.4286
5053.00,0.4283
5052.00,0.4280
5051.00,0.4276
5050.00,0.4273
5049.00,0.4269
5048.00,0.4265
5047.00,0.4261
5046.00,0.4257
5045.00,0.4253
5044.00,0.4249
5043.00,0.4245
5042.00,0.4241
5041.00,0.4236
5040.00,0.4232
5039.00,0.4228
5038.00,0.4224
5037.00,0.4221
5036.00,0.4217
5035.00,0.4214
5034.00,0.4210
5033.00,0.4206
5032.00,0.4202
5031.00,0.4197
5030.00,0.4193
5029.00,0.4189
5028.00,0.4185
5027.00,0.4181
5026.00,0.4177
5025.00,0.4173
5024.00,0.4169
5023.00,0.4165
5022.00,0.4161
5021.00,0.4158
5020.00,0.4154
5019.00,0.4150
5018.00,0.4146
5017.00,0.4142
5016.00,0.4138
5015.00,0.4135
5014.00,0.4131
5013.00,0.4128
5012.00,0.4124
5011.00,0.4121
5010.00,0.4118
5009.00,0.4115
5008.00,0.4111
5007.00,0.4108
5006.00,0.4104
5005.00,0.4101
5004.00,0.4097
5003.00,0.4094
5002.00,0.4091
5001.00,0.4088
5000.00,0.4086
4999.00,0.4083
4998.00,0.4081
4997.00,0.4079
4996.00,0.4077
4995.00,0.4075
4994.00,0.4073
4993.00,0.4071
4992.00,0.4069
4991.00,0.4068
4990.00,0.4066
4989.00,0.4064
4988.00,0.4063
4987.00,0.4062
4986.00,0.4061
4985.00,0.4060
4984.00,0.4059
4983.00,0.4057
4982.00,0.4056
4981.00,0.4055
4980.00,0.4055
4979.00,0.4054
4978.00,0.4054
4977.00,0.4054
4976.00,0.4054
4975.00,0.4054
4974.00,0.4054
4973.00,0.4054
4972.00,0.4054
4971.00,0.4055
4970.00,0.4056
4969.00,0.4056
4968.00,0.4057
4967.00,0.4059
4966.00,0.4060
4965.00,0.4062
4964.00,0.4063
4963.00,0.4065
4962.00,0.4067
4961.00,0.4069
4960.00,0.4071
4959.00,0.4073
4958.00,0.4075
4957.00,0.4078
4956.00,0.4080
4955.00,0.4083
4954.00,0.4085
4953.00,0.4088
4952.00,0.4090
4951.00,0.4093
4950.00,0.4096
4949.00,0.4099
4948.00,0.4103
4947.00,0.4106
4946.00,0.4109
4945.00,0.4113
4944.00,0.4116
4943.00,0.4120
4942.00,0.4123
4941.00,0.4127
4940.00,0.4132
4939.00,0.4136
4938.00,0.4140
4937.00,0.4145
4936.00,0.4150
4935.00,0.4154
4934.00,0.4159
4933.00,0.4164
4932.00,0.4169
4931.00,0.4174
4930.00,0.4179
4929.00,0.4184
4928.00,0.4189
4927.00,0.4194
4926.00,0.4199
4925.00,0.4205
4924.00,0.4210
4923.00,0.4216
4922.00,0.4222
4921.00,0.4227
4920.00,0.4233
4919.00,0.4239
4918.00,0.4246
4917.00,0.4252
4916.00,0.4258
4915.00,0.4265
4914.00,0.4271
4913.00,0.4277
4912.00,0.4284
4911.00,0.4290
4910.00,0.4296
4909.00,0.4303
4908.00,0.4310
4907.00,0.4316
4906.00,0.4323
4905.00,0.4329
4904.00,0.4336
4903.00,0.4342
4902.00,0.4349
4901.00,0.4356
4900.00,0.4363
4899.00,0.4370
4898.00,0.4377
4897.00,0.4384
4896.00,0.4391
4895.00,0.4398
4894.00,0.4405
4893.00,0.4412
4892.00,0.4419
4891.00,0.4426
4890.00,0.4434
4889.00,0.4441
4888.00,0.4448
4887.00,0.4455
4886.00,0.4462
4885.00,0.4469
4884.00,0.4477
4883.00,0.4485
4882.00,0.4492
4881.00,0.4499
4880.00,0.4505
4879.00,0.4512
4878.00,0.4519
4877.00,0.4527
4876.00,0.4535
4875.00,0.4542
4874.00,0.4549
4873.00,0.4556
4872.00,0.4562
4871.00,0.4569
4870.00,0.4576
4869.00,0.4583
4868.00,0.4590
4867.00,0.4597
4866.00,0.4604
4865.00,0.4611
4864.00,0.4618
4863.00,0.4624
4862.00,0.4631
4861.00,0.4638
4860.00,0.4644
4859.00,0.4651
4858.00,0.4658
4857.00,0.4665
4856.00,0.4671
4855.00,0.4677
4854.00,0.4683
4853.00,0.4689
4852.00,0.4695
4851.00,0.4702
4850.00,0.4708
4849.00,0.4714
4848.00,0.4720
4847.00,0.4726
4846.00,0.4732
4845.00,0.4738
4844.00,0.4743
4843.00,0.4749
4842.00,0.4755
4841.00,0.4760
4840.00,0.4766
4839.00,0.4772
4838.00,0.4778
4837.00,0.4784
4836.00,0.4790
4835.00,0.4795
4834.00,0.4801
4833.00,0.4806
4832.00,0.4811
4831.00,0.4816
4830.00,0.4821
4829.00,0.4826
4828.00,0.4831
4827.00,0.4836
4826.00,0.4841
4825.00,0.4846
4824.00,0.4851
4823.00,0.4855
4822.00,0.4860
4821.00,0.4864
4820.00,0.4868
4819.00,0.4873
4818.00,0.4877
4817.00,0.4881
4816.00,0.4886
4815.00,0.4890
4814.00,0.4894
4813.00,0.4898
4812.00,0.4902
4811.00,0.4906
4810.00,0.4910
4809.00,0.4914
4808.00,0.4918
4807.00,0.4922
4806.00,0.4926
4805.00,0.4929
4804.00,0.4932
4803.00,0.4935
4802.00,0.4939
4801.00,0.4942
4800.00,0.4946
4799.00,0.4949
4798.00,0.4953
4797.00,0.4956
4796.00,0.4959
4795.00,0.4962
4794.00,0.4965
4793.00,0.4968
4792.00,0.4971
4791.00,0.4973
4790.00,0.4976
4789.00,0.4978
4788.00,0.4981
4787.00,0.4984
4786.00,0.4986
4785.00,0.4989
4784.00,0.4992
4783.00,0.4995
4782.00,0.4997
4781.00,0.5000
4780.00,0.5002
4779.00,0.5004
4778.00,0.5006
4777.00,0.5008
4776.00,0.5010
4775.00,0.5012
4774.00,0.5014
4773.00,0.5015
4772.00,0.5017
4771.00,0.5019
4770.00,0.5021
4769.00,0.5023
4768.00,0.5024
4767.00,0.5025
4766.00,0.5026
4765.00,0.5027
4764.00,0.5027
4763.00,0.5028
4762.00,0.5029
4761.00,0.5030
4760.00,0.5030
4759.00,0.5031
4758.00,0.5032
4757.00,0.5033
4756.00,0.5034
4755.00,0.5035
4754.00,0.5036
4753.00,0.5036
4752.00,0.5037
4751.00,0.5037
4750.00,0.5037
4749.00,0.5037
4748.00,0.5037
4747.00,0.5037
4746.00,0.5037
4745.00,0.5037
4744.00,0.5036
4743.00,0.5036
4742.00,0.5035
4741.00,0.5034
4740.00,0.5034
4739.00,0.5033
4738.00,0.5033
4737.00,0.5032
4736.00,0.5031
4735.00,0.5030
4734.00,0.5029
4733.00,0.5028
4732.00,0.5027
4731.00,0.5027
4730.00,0.5025
4729.00,0.5024
4728.00,0.5023
4727.00,0.5021
4726.00,0.5019
4725.00,0.5016
4724.00,0.5014
4723.00,0.5013
4722.00,0.5011
4721.00,0.5010
4720.00,0.5009
4719.00,0.5007
4718.00,0.5006
4717.00,0.5004
4716.00,0.5002
4715.00,0.5000
4714.00,0.4998
4713.00,0.4995
4712.00,0.4992
4711.00,0.4989
4710.00,0.4987
4709.00,0.4984
4708.00,0.4982
4707.00,0.4980
4706.00,0.4978
4705.00,0.4975
4704.00,0.4972
4703.00,0.4969
4702.00,0.4966
4701.00,0.4963
4700.00,0.4961
4699.00,0.4959
4698.00,0.4957
4697.00,0.4954
4696.00,0.4951
4695.00,0.4949
4694.00,0.4946
4693.00,0.4944
4692.00,0.4942
4691.00,0.4940
4690.00,0.4938
4689.00,0.4935
4688.00,0.4933
4687.00,0.4930
4686.00,0.4927
4685.00,0.4924
4684.00,0.4922
4683.00,0.4919
4682.00,0.4917
4681.00,0.4915
4680.00,0.4912
4679.00,0.4910
4678.00,0.4908
4677.00,0.4906
4676.00,0.4903
4675.00,0.4901
4674.00,0.4898
4673.00,0.4895
4672.00,0.4893
4671.00,0.4890
4670.00,0.4888
4669.00,0.4886
4668.00,0.4883
4667.00,0.4881
4666.00,0.4878
4665.00,0.4875
4664.00,0.4872
4663.00,0.4869
4662.00,0.4867
4661.00,0.4865
4660.00,0.4863
4659.00,0.4860
4658.00,0.4858
4657.00,0.4856
4656.00,0.4853
4655.00,0.4851
4654.00,0.4849
4653.00,0.4846
4652.00,0.4843
4651.00,0.4841
4650.00,0.4839
4649.00,0.4837
4648.00,0.4834
4647.00,0.4832
4646.00,0.4830
4645.00,0.4827
4644.00,0.4824
4643.00,0.4821
4642.00,0.4819
4641.00,0.4816
4640.00,0.4814
4639.00,0.4813
4638.00,0.4811
4637.00,0.4809
4636.00,0.4807
4635.00,0.4805
4634.00,0.4803
4633.00,0.4801
4632.00,0.4799
4631.00,0.4798
4630.00,0.4797
4629.00,0.4796
4628.00,0.4795
4627.00,0.4793
4626.00,0.4791
4625.00,0.4789
4624.00,0.4787
4623.00,0.4785
4622.00,0.4783
4621.00,0.4781
4620.00,0.4780
4619.00,0.4779
4618.00,0.4779
4617.00,0.4778
4616.00,0.4777
4615.00,0.4776
4614.00,0.4775
4613.00,0.4773
4612.00,0.4772
4611.00,0.4770
4610.00,0.4769
4609.00,0.4768
4608.00,0.4767
4607.00,0.4766
4606.00,0.4765
4605.00,0.4763
4604.00,0.4761
4603.00,0.4759
4602.00,0.4757
4601.00,0.4756
4600.00,0.4755
4599.00,0.4754
4598.00,0.4753
4597.00,0.4752
4596.00,0.4751
4595.00,0.4751
4594.00,0.4750
4593.00,0.4748
4592.00,0.4746
4591.00,0.4745
4590.00,0.4744
4589.00,0.4743
4588.00,0.4742
4587.00,0.4741
4586.00,0.4741
4585.00,0.4740
4584.00,0.4739
4583.00,0.4738
4582.00,0.4737
4581.00,0.4736
4580.00,0.4735
4579.00,0.4735
4578.00,0.4734
4577.00,0.4733
4576.00,0.4731
4575.00,0.4730
4574.00,0.4729
4573.00,0.4728
4572.00,0.4726
4571.00,0.4726
4570.00,0.4725
4569.00,0.4725
4568.00,0.4724
4567.00,0.4723
4566.00,0.4721
4565.00,0.4720
4564.00,0.4718
4563.00,0.4717
4562.00,0.4716
4561.00,0.4715
4560.00,0.4714
4559.00,0.4713
4558.00,0.4712
4557.00,0.4710
4556.00,0.4709
4555.00,0.4707
4554.00,0.4705
4553.00,0.4703
4552.00,0.4701
4551.00,0.4699
4550.00,0.4697
4549.00,0.4695
4548.00,0.4694
4547.00,0.4693
4546.00,0.4691
4545.00,0.4690
4544.00,0.4688
4543.00,0.4686
4542.00,0.4684
4541.00,0.4682
4540.00,0.4680
4539.00,0.4678
4538.00,0.4676
4537.00,0.4674
4536.00,0.4671
4535.00,0.4669
4534.00,0.4667
4533.00,0.4665
4532.00,0.4663
4531.00,0.4661
4530.00,0.4658
4529.00,0.4656
4528.00,0.4653
4527.00,0.4651
4526.00,0.4649
4525.00,0.4648
4524.00,0.4645
4523.00,0.4643
4522.00,0.4640
4521.00,0.4638
4520.00,0.4635
4519.00,0.4633
4518.00,0.4631
4517.00,0.4628
4516.00,0.4626
4515.00,0.4624
4514.00,0.4621
4513.00,0.4618
4512.00,0.4616
4511.00,0.4614
4510.00,0.4612
4509.00,0.4609
4508.00,0.4607
4507.00,0.4605
4506.00,0.4603
4505.00,0.4601
4504.00,0.4599
4503.00,0.4597
4502.00,0.4596
4501.00,0.4594
4500.00,0.4592
4499.00,0.4590
4498.00,0.4588
4497.00,0.4587
4496.00,0.4585
4495.00,0.4584
4494.00,0.4583
4493.00,0.4582
4492.00,0.4581
4491.00,0.4580
4490.00,0.4580
4489.00,0.4580
4488.00,0.4580
4487.00,0.4580
4486.00,0.4580
4485.00,0.4580
4484.00,0.4580
4483.00,0.4580
4482.00,0.4580
4481.00,0.4581
4480.00,0.4583
4479.00,0.4585
4478.00,0.4587
4477.00,0.4590
4476.00,0.4592
4475.00,0.4594
4474.00,0.4596
4473.00,0.4597
4472.00,0.4600
4471.00,0.4603
4470.00,0.4606
4469.00,0.4609
4468.00,0.4613
4467.00,0.4616
4466.00,0.4620
4465.00,0.4624
4464.00,0.4628
4463.00,0.4633
4462.00,0.4637
4461.00,0.4641
4460.00,0.4646
4459.00,0.4650
4458.00,0.4655
4457.00,0.4660
4456.00,0.4664
4455.00,0.4669
4454.00,0.4673
4453.00,0.4678
4452.00,0.4683
4451.00,0.4688
4450.00,0.4693
4449.00,0.4698
4448.00,0.4703
4447.00,0.4709
4446.00,0.4714
4445.00,0.4720
4444.00,0.4726
4443.00,0.4732
4442.00,0.4737
4441.00,0.4742
4440.00,0.4748
4439.00,0.4753
4438.00,0.4759
4437.00,0.4765
4436.00,0.4771
4435.00,0.4778
4434.00,0.4784
4433.00,0.4790
4432.00,0.4796
4431.00,0.4803
4430.00,0.4810
4429.00,0.4817
4428.00,0.4824
4427.00,0.4831
4426.00,0.4838
4425.00,0.4844
4424.00,0.4851
4423.00,0.4857
4422.00,0.4864
4421.00,0.4871
4420.00,0.4879
4419.00,0.4885
4418.00,0.4891
4417.00,0.4897
4416.00,0.4903
4415.00,0.4909
4414.00,0.4915
4413.00,0.4921
4412.00,0.4927
4411.00,0.4933
4410.00,0.4938
4409.00,0.4942
4408.00,0.4947
4407.00,0.4952
4406.00,0.4957
4405.00,0.4961
4404.00,0.4965
4403.00,0.4970
4402.00,0.4973
4401.00,0.4977
4400.00,0.4980
4399.00,0.4982
4398.00,0.4985
4397.00,0.4987
4396.00,0.4989
4395.00,0.4991
4394.00,0.4992
4393.00,0.4993
4392.00,0.4993
4391.00,0.4993
4390.00,0.4992
4389.00,0.4991
4388.00,0.4991
4387.00,0.4990
4386.00,0.4989
4385.00,0.4988
4384.00,0.4986
4383.00,0.4984
4382.00,0.4982
4381.00,0.4980
4380.00,0.4978
4379.00,0.4977
4378.00,0.4975
4377.00,0.4973
4376.00,0.4970
4375.00,0.4968
4374.00,0.4965
4373.00,0.4963
4372.00,0.4960
4371.00,0.4958
4370.00,0.4955
4369.00,0.4952
4368.00,0.4950
4367.00,0.4948
4366.00,0.4946
4365.00,0.4944
4364.00,0.4943
4363.00,0.4942
4362.00,0.4940
4361.00,0.4939
4360.00,0.4939
4359.00,0.4938
4358.00,0.4938
4357.00,0.4938
4356.00,0.4938
4355.00,0.4938
4354.00,0.4938
4353.00,0.4939
4352.00,0.4940
4351.00,0.4941
4350.00,0.4943
4349.00,0.4944
4348.00,0.4945
4347.00,0.4947
4346.00,0.4950
4345.00,0.4952
4344.00,0.4954
4343.00,0.4956
4342.00,0.4958
4341.00,0.4961
4340.00,0.4964
4339.00,0.4967
4338.00,0.4970
4337.00,0.4973
4336.00,0.4976
4335.00,0.4979
4334.00,0.4982
4333.00,0.4985
4332.00,0.4988
4331.00,0.4992
4330.00,0.4995
4329.00,0.4999
4328.00,0.5002
4327.00,0.5005
4326.00,0.5007
4325.00,0.5009
4324.00,0.5012
4323.00,0.5014
4322.00,0.5017
4321.00,0.5019
4320.00,0.5021
4319.00,0.5024
4318.00,0.5025
4317.00,0.5027
4316.00,0.5029
4315.00,0.5032
4314.00,0.5034
4313.00,0.5037
4312.00,0.5040
4311.00,0.5042
4310.00,0.5045
4309.00,0.5047
4308.00,0.5049
4307.00,0.5051
4306.00,0.5053
4305.00,0.5054
4304.00,0.5056
4303.00,0.5058
4302.00,0.5059
4301.00,0.5061
4300.00,0.5062
4299.00,0.5063
4298.00,0.5064
4297.00,0.5064
4296.00,0.5064
4295.00,0.5064
4294.00,0.5063
4293.00,0.5063
4292.00,0.5063
4291.00,0.5063
4290.00,0.5063
4289.00,0.5063
4288.00,0.5062
4287.00,0.5060
4286.00,0.5059
4285.00,0.5058
4284.00,0.5058
4283.00,0.5057
4282.00,0.5057
4281.00,0.5056
4280.00,0.5055
4279.00,0.5055
4278.00,0.5054
4277.00,0.5052
4276.00,0.5051
4275.00,0.5050
4274.00,0.5048
4273.00,0.5048
4272.00,0.5047
4271.00,0.5047
4270.00,0.5046
4269.00,0.5046
4268.00,0.5047
4267.00,0.5047
4266.00,0.5047
4265.00,0.5047
4264.00,0.5047
4263.00,0.5047
4262.00,0.5047
4261.00,0.5047
4260.00,0.5047
4259.00,0.5047
4258.00,0.5047
4257.00,0.5047
4256.00,0.5047
4255.00,0.5046
4254.00,0.5045
4253.00,0.5044
4252.00,0.5044
4251.00,0.5043
4250.00,0.5043
4249.00,0.5044
4248.00,0.5045
4247.00,0.5045
4246.00,0.5046
4245.00,0.5046
4244.00,0.5047
4243.00,0.5047
4242.00,0.5047
4241.00,0.5047
4240.00,0.5048
4239.00,0.5048
4238.00,0.5048
4237.00,0.5048
4236.00,0.5048
4235.00,0.5048
4234.00,0.5049
4233.00,0.5049
4232.00,0.5050
4231.00,0.5050
4230.00,0.5051
4229.00,0.5051
4228.00,0.5050
4227.00,0.5050
4226.00,0.5050
4225.00,0.5051
4224.00,0.5052
4223.00,0.5052
4222.00,0.5052
4221.00,0.5052
4220.00,0.5051
4219.00,0.5051
4218.00,0.5050
4217.00,0.5050
4216.00,0.5049
4215.00,0.5049
4214.00,0.5048
4213.00,0.5048
4212.00,0.5048
4211.00,0.5048
4210.00,0.5048
4209.00,0.5048
4208.00,0.5047
4207.00,0.5047
4206.00,0.5046
4205.00,0.5046
4204.00,0.5046
4203.00,0.5046
4202.00,0.5047
4201.00,0.5047
4200.00,0.5047
4199.00,0.5048
4198.00,0.5048
4197.00,0.5049
4196.00,0.5050
4195.00,0.5050
4194.00,0.5051
4193.00,0.5052
4192.00,0.5052
4191.00,0.5053
4190.00,0.5055
4189.00,0.5056
4188.00,0.5058
4187.00,0.5059
4186.00,0.5060
4185.00,0.5062
4184.00,0.5064
4183.00,0.5067
4182.00,0.5069
4181.00,0.5071
4180.00,0.5073
4179.00,0.5075
4178.00,0.5077
4177.00,0.5079
4176.00,0.5081
4175.00,0.5083
4174.00,0.5086
4173.00,0.5090
4172.00,0.5093
4171.00,0.5097
4170.00,0.5101
4169.00,0.5105
4168.00,0.5109
4167.00,0.5113
4166.00,0.5117
4165.00,0.5120
4164.00,0.5124
4163.00,0.5128
4162.00,0.5132
4161.00,0.5136
4160.00,0.5140
4159.00,0.5145
4158.00,0.5151
4157.00,0.5156
4156.00,0.5162
4155.00,0.5167
4154.00,0.5173
4153.00,0.5179
4152.00,0.5185
4151.00,0.5190
4150.00,0.5196
4149.00,0.5202
4148.00,0.5209
4147.00,0.5215
4146.00,0.5222
4145.00,0.5229
4144.00,0.5235
4143.00,0.5242
4142.00,0.5248
4141.00,0.5254
4140.00,0.5261
4139.00,0.5269
4138.00,0.5276
4137.00,0.5284
4136.00,0.5292
4135.00,0.5299
4134.00,0.5306
4133.00,0.5314
4132.00,0.5321
4131.00,0.5329
4130.00,0.5338
4129.00,0.5346
4128.00,0.5355
4127.00,0.5363
4126.00,0.5372
4125.00,0.5381
4124.00,0.5390
4123.00,0.5398
4122.00,0.5406
4121.00,0.5414
4120.00,0.5423
4119.00,0.5432
4118.00,0.5440
4117.00,0.5449
4116.00,0.5459
4115.00,0.5468
4114.00,0.5477
4113.00,0.5487
4112.00,0.5496
4111.00,0.5506
4110.00,0.5517
4109.00,0.5528
4108.00,0.5539
4107.00,0.5549
4106.00,0.5559
4105.00,0.5567
4104.00,0.5576
4103.00,0.5586
4102.00,0.5597
4101.00,0.5608
4100.00,0.5620
4099.00,0.5631
4098.00,0.5642
4097.00,0.5652
4096.00,0.5663
4095.00,0.5674
4094.00,0.5686
4093.00,0.5697
4092.00,0.5709
4091.00,0.5721
4090.00,0.5732
4089.00,0.5744
4088.00,0.5755
4087.00,0.5766
4086.00,0.5777
4085.00,0.5788
4084.00,0.5800
4083.00,0.5813
4082.00,0.5826
4081.00,0.5839
4080.00,0.5852
4079.00,0.5865
4078.00,0.5877
4077.00,0.5888
4076.00,0.5899
4075.00,0.5911
4074.00,0.5922
4073.00,0.5934
4072.00,0.5947
4071.00,0.5959
4070.00,0.5972
4069.00,0.5985
4068.00,0.5998
4067.00,0.6011
4066.00,0.6024
4065.00,0.6036
4064.00,0.6049
4063.00,0.6061
4062.00,0.6072
4061.00,0.6084
4060.00,0.6095
4059.00,0.6107
4058.00,0.6118
4057.00,0.6130
4056.00,0.6142
4055.00,0.6153
4054.00,0.6164
4053.00,0.6175
4052.00,0.6187
4051.00,0.6199
4050.00,0.6210
4049.00,0.6222
4048.00,0.6235
4047.00,0.6248
4046.00,0.6260
4045.00,0.6271
4044.00,0.6281
4043.00,0.6291
4042.00,0.6300
4041.00,0.6311
4040.00,0.6321
4039.00,0.6332
4038.00,0.6342
4037.00,0.6351
4036.00,0.6360
4035.00,0.6369
4034.00,0.6378
4033.00,0.6388
4032.00,0.6397
4031.00,0.6405
4030.00,0.6413
4029.00,0.6420
4028.00,0.6427
4027.00,0.6434
4026.00,0.6441
4025.00,0.6448
4024.00,0.6455
4023.00,0.6461
4022.00,0.6467
4021.00,0.6472
4020.00,0.6476
4019.00,0.6480
4018.00,0.6483
4017.00,0.6487
4016.00,0.6492
4015.00,0.6497
4014.00,0.6501
4013.00,0.6504
4012.00,0.6507
4011.00,0.6509
4010.00,0.6511
4009.00,0.6512
4008.00,0.6511
4007.00,0.6509
4006.00,0.6507
4005.00,0.6505
4004.00,0.6504
4003.00,0.6503
4002.00,0.6501
4001.00,0.6499
4000.00,0.6496
   㕕侱�
♼⠨⚚