Created As ASCII File,样品 071 用户 Administrator 日期 星期三, 四月 21 2021
cm-1,A
12000.00,0.2034
11999.00,0.2035
11998.00,0.2035
11997.00,0.2035
11996.00,0.2035
11995.00,0.2034
11994.00,0.2033
11993.00,0.2031
11992.00,0.2028
11991.00,0.2026
11990.00,0.2026
11989.00,0.2027
11988.00,0.2029
11987.00,0.2031
11986.00,0.2034
11985.00,0.2037
11984.00,0.2038
11983.00,0.2038
11982.00,0.2037
11981.00,0.2035
11980.00,0.2033
11979.00,0.2030
11978.00,0.2030
11977.00,0.2031
11976.00,0.2033
11975.00,0.2035
11974.00,0.2035
11973.00,0.2034
11972.00,0.2031
11971.00,0.2027
11970.00,0.2024
11969.00,0.2023
11968.00,0.2024
11967.00,0.2026
11966.00,0.2029
11965.00,0.2031
11964.00,0.2032
11963.00,0.2033
11962.00,0.2033
11961.00,0.2033
11960.00,0.2031
11959.00,0.2029
11958.00,0.2026
11957.00,0.2023
11956.00,0.2022
11955.00,0.2022
11954.00,0.2024
11953.00,0.2026
11952.00,0.2028
11951.00,0.2028
11950.00,0.2026
11949.00,0.2024
11948.00,0.2023
11947.00,0.2023
11946.00,0.2024
11945.00,0.2026
11944.00,0.2029
11943.00,0.2031
11942.00,0.2031
11941.00,0.2030
11940.00,0.2027
11939.00,0.2023
11938.00,0.2019
11937.00,0.2017
11936.00,0.2018
11935.00,0.2022
11934.00,0.2026
11933.00,0.2030
11932.00,0.2031
11931.00,0.2030
11930.00,0.2030
11929.00,0.2032
11928.00,0.2036
11927.00,0.2043
11926.00,0.2049
11925.00,0.2052
11924.00,0.2052
11923.00,0.2050
11922.00,0.2049
11921.00,0.2052
11920.00,0.2058
11919.00,0.2063
11918.00,0.2065
11917.00,0.2062
11916.00,0.2055
11915.00,0.2047
11914.00,0.2042
11913.00,0.2042
11912.00,0.2045
11911.00,0.2049
11910.00,0.2049
11909.00,0.2043
11908.00,0.2034
11907.00,0.2024
11906.00,0.2019
11905.00,0.2020
11904.00,0.2027
11903.00,0.2036
11902.00,0.2043
11901.00,0.2046
11900.00,0.2043
11899.00,0.2038
11898.00,0.2033
11897.00,0.2030
11896.00,0.2030
11895.00,0.2034
11894.00,0.2039
11893.00,0.2043
11892.00,0.2044
11891.00,0.2042
11890.00,0.2039
11889.00,0.2035
11888.00,0.2032
11887.00,0.2031
11886.00,0.2031
11885.00,0.2031
11884.00,0.2031
11883.00,0.2031
11882.00,0.2031
11881.00,0.2032
11880.00,0.2032
11879.00,0.2033
11878.00,0.2034
11877.00,0.2035
11876.00,0.2036
11875.00,0.2038
11874.00,0.2040
11873.00,0.2042
11872.00,0.2044
11871.00,0.2044
11870.00,0.2043
11869.00,0.2040
11868.00,0.2038
11867.00,0.2036
11866.00,0.2035
11865.00,0.2035
11864.00,0.2036
11863.00,0.2037
11862.00,0.2039
11861.00,0.2040
11860.00,0.2042
11859.00,0.2045
11858.00,0.2049
11857.00,0.2051
11856.00,0.2051
11855.00,0.2049
11854.00,0.2046
11853.00,0.2045
11852.00,0.2045
11851.00,0.2047
11850.00,0.2050
11849.00,0.2051
11848.00,0.2049
11847.00,0.2045
11846.00,0.2039
11845.00,0.2035
11844.00,0.2033
11843.00,0.2034
11842.00,0.2037
11841.00,0.2039
11840.00,0.2039
11839.00,0.2036
11838.00,0.2033
11837.00,0.2032
11836.00,0.2032
11835.00,0.2034
11834.00,0.2037
11833.00,0.2040
11832.00,0.2042
11831.00,0.2042
11830.00,0.2042
11829.00,0.2041
11828.00,0.2041
11827.00,0.2041
11826.00,0.2041
11825.00,0.2042
11824.00,0.2042
11823.00,0.2042
11822.00,0.2042
11821.00,0.2041
11820.00,0.2040
11819.00,0.2039
11818.00,0.2039
11817.00,0.2040
11816.00,0.2041
11815.00,0.2042
11814.00,0.2043
11813.00,0.2043
11812.00,0.2044
11811.00,0.2045
11810.00,0.2046
11809.00,0.2048
11808.00,0.2049
11807.00,0.2048
11806.00,0.2046
11805.00,0.2044
11804.00,0.2042
11803.00,0.2039
11802.00,0.2037
11801.00,0.2034
11800.00,0.2031
11799.00,0.2030
11798.00,0.2030
11797.00,0.2033
11796.00,0.2036
11795.00,0.2040
11794.00,0.2042
11793.00,0.2043
11792.00,0.2043
11791.00,0.2044
11790.00,0.2046
11789.00,0.2048
11788.00,0.2050
11787.00,0.2050
11786.00,0.2047
11785.00,0.2043
11784.00,0.2039
11783.00,0.2038
11782.00,0.2039
11781.00,0.2042
11780.00,0.2045
11779.00,0.2047
11778.00,0.2047
11777.00,0.2045
11776.00,0.2042
11775.00,0.2041
11774.00,0.2040
11773.00,0.2041
11772.00,0.2041
11771.00,0.2042
11770.00,0.2042
11769.00,0.2041
11768.00,0.2040
11767.00,0.2039
11766.00,0.2038
11765.00,0.2038
11764.00,0.2039
11763.00,0.2041
11762.00,0.2044
11761.00,0.2047
11760.00,0.2048
11759.00,0.2048
11758.00,0.2046
11757.00,0.2042
11756.00,0.2037
11755.00,0.2032
11754.00,0.2029
11753.00,0.2029
11752.00,0.2032
11751.00,0.2037
11750.00,0.2043
11749.00,0.2046
11748.00,0.2045
11747.00,0.2041
11746.00,0.2036
11745.00,0.2033
11744.00,0.2034
11743.00,0.2039
11742.00,0.2045
11741.00,0.2050
11740.00,0.2051
11739.00,0.2048
11738.00,0.2042
11737.00,0.2037
11736.00,0.2036
11735.00,0.2039
11734.00,0.2045
11733.00,0.2051
11732.00,0.2055
11731.00,0.2057
11730.00,0.2055
11729.00,0.2053
11728.00,0.2050
11727.00,0.2049
11726.00,0.2049
11725.00,0.2051
11724.00,0.2052
11723.00,0.2053
11722.00,0.2052
11721.00,0.2051
11720.00,0.2048
11719.00,0.2046
11718.00,0.2045
11717.00,0.2047
11716.00,0.2051
11715.00,0.2056
11714.00,0.2059
11713.00,0.2060
11712.00,0.2057
11711.00,0.2052
11710.00,0.2047
11709.00,0.2042
11708.00,0.2040
11707.00,0.2040
11706.00,0.2040
11705.00,0.2040
11704.00,0.2037
11703.00,0.2033
11702.00,0.2029
11701.00,0.2027
11700.00,0.2028
11699.00,0.2033
11698.00,0.2039
11697.00,0.2045
11696.00,0.2048
11695.00,0.2048
11694.00,0.2046
11693.00,0.2044
11692.00,0.2045
11691.00,0.2048
11690.00,0.2052
11689.00,0.2054
11688.00,0.2054
11687.00,0.2052
11686.00,0.2048
11685.00,0.2045
11684.00,0.2044
11683.00,0.2045
11682.00,0.2046
11681.00,0.2046
11680.00,0.2045
11679.00,0.2043
11678.00,0.2043
11677.00,0.2045
11676.00,0.2048
11675.00,0.2050
11674.00,0.2050
11673.00,0.2048
11672.00,0.2045
11671.00,0.2043
11670.00,0.2044
11669.00,0.2047
11668.00,0.2050
11667.00,0.2051
11666.00,0.2050
11665.00,0.2046
11664.00,0.2041
11663.00,0.2039
11662.00,0.2039
11661.00,0.2042
11660.00,0.2045
11659.00,0.2048
11658.00,0.2050
11657.00,0.2050
11656.00,0.2049
11655.00,0.2049
11654.00,0.2049
11653.00,0.2049
11652.00,0.2051
11651.00,0.2052
11650.00,0.2052
11649.00,0.2051
11648.00,0.2050
11647.00,0.2048
11646.00,0.2048
11645.00,0.2050
11644.00,0.2052
11643.00,0.2054
11642.00,0.2055
11641.00,0.2053
11640.00,0.2049
11639.00,0.2045
11638.00,0.2044
11637.00,0.2045
11636.00,0.2048
11635.00,0.2050
11634.00,0.2050
11633.00,0.2046
11632.00,0.2040
11631.00,0.2034
11630.00,0.2031
11629.00,0.2033
11628.00,0.2038
11627.00,0.2043
11626.00,0.2045
11625.00,0.2044
11624.00,0.2040
11623.00,0.2036
11622.00,0.2035
11621.00,0.2037
11620.00,0.2042
11619.00,0.2047
11618.00,0.2050
11617.00,0.2050
11616.00,0.2048
11615.00,0.2046
11614.00,0.2044
11613.00,0.2044
11612.00,0.2045
11611.00,0.2047
11610.00,0.2048
11609.00,0.2047
11608.00,0.2045
11607.00,0.2042
11606.00,0.2040
11605.00,0.2040
11604.00,0.2042
11603.00,0.2044
11602.00,0.2047
11601.00,0.2048
11600.00,0.2048
11599.00,0.2048
11598.00,0.2048
11597.00,0.2050
11596.00,0.2053
11595.00,0.2056
11594.00,0.2057
11593.00,0.2057
11592.00,0.2055
11591.00,0.2052
11590.00,0.2050
11589.00,0.2050
11588.00,0.2051
11587.00,0.2053
11586.00,0.2053
11585.00,0.2053
11584.00,0.2052
11583.00,0.2052
11582.00,0.2054
11581.00,0.2056
11580.00,0.2060
11579.00,0.2062
11578.00,0.2062
11577.00,0.2060
11576.00,0.2058
11575.00,0.2057
11574.00,0.2058
11573.00,0.2058
11572.00,0.2058
11571.00,0.2057
11570.00,0.2054
11569.00,0.2052
11568.00,0.2051
11567.00,0.2051
11566.00,0.2051
11565.00,0.2050
11564.00,0.2048
11563.00,0.2046
11562.00,0.2044
11561.00,0.2044
11560.00,0.2045
11559.00,0.2048
11558.00,0.2049
11557.00,0.2049
11556.00,0.2047
11555.00,0.2046
11554.00,0.2046
11553.00,0.2048
11552.00,0.2052
11551.00,0.2055
11550.00,0.2055
11549.00,0.2053
11548.00,0.2049
11547.00,0.2045
11546.00,0.2043
11545.00,0.2043
11544.00,0.2044
11543.00,0.2045
11542.00,0.2046
11541.00,0.2045
11540.00,0.2044
11539.00,0.2042
11538.00,0.2041
11537.00,0.2041
11536.00,0.2041
11535.00,0.2042
11534.00,0.2044
11533.00,0.2046
11532.00,0.2047
11531.00,0.2048
11530.00,0.2049
11529.00,0.2048
11528.00,0.2049
11527.00,0.2050
11526.00,0.2053
11525.00,0.2058
11524.00,0.2062
11523.00,0.2064
11522.00,0.2065
11521.00,0.2064
11520.00,0.2062
11519.00,0.2062
11518.00,0.2062
11517.00,0.2062
11516.00,0.2063
11515.00,0.2062
11514.00,0.2059
11513.00,0.2056
11512.00,0.2053
11511.00,0.2051
11510.00,0.2050
11509.00,0.2050
11508.00,0.2049
11507.00,0.2048
11506.00,0.2046
11505.00,0.2045
11504.00,0.2044
11503.00,0.2045
11502.00,0.2046
11501.00,0.2048
11500.00,0.2049
11499.00,0.2049
11498.00,0.2049
11497.00,0.2048
11496.00,0.2047
11495.00,0.2047
11494.00,0.2047
11493.00,0.2048
11492.00,0.2047
11491.00,0.2047
11490.00,0.2047
11489.00,0.2048
11488.00,0.2049
11487.00,0.2051
11486.00,0.2052
11485.00,0.2052
11484.00,0.2051
11483.00,0.2051
11482.00,0.2050
11481.00,0.2049
11480.00,0.2049
11479.00,0.2048
11478.00,0.2048
11477.00,0.2047
11476.00,0.2047
11475.00,0.2047
11474.00,0.2049
11473.00,0.2050
11472.00,0.2050
11471.00,0.2049
11470.00,0.2047
11469.00,0.2046
11468.00,0.2046
11467.00,0.2048
11466.00,0.2052
11465.00,0.2056
11464.00,0.2057
11463.00,0.2056
11462.00,0.2054
11461.00,0.2052
11460.00,0.2052
11459.00,0.2055
11458.00,0.2059
11457.00,0.2062
11456.00,0.2063
11455.00,0.2061
11454.00,0.2058
11453.00,0.2055
11452.00,0.2053
11451.00,0.2052
11450.00,0.2051
11449.00,0.2050
11448.00,0.2049
11447.00,0.2050
11446.00,0.2051
11445.00,0.2053
11444.00,0.2054
11443.00,0.2054
11442.00,0.2053
11441.00,0.2052
11440.00,0.2052
11439.00,0.2053
11438.00,0.2056
11437.00,0.2059
11436.00,0.2061
11435.00,0.2062
11434.00,0.2060
11433.00,0.2057
11432.00,0.2055
11431.00,0.2054
11430.00,0.2055
11429.00,0.2058
11428.00,0.2062
11427.00,0.2065
11426.00,0.2065
11425.00,0.2063
11424.00,0.2060
11423.00,0.2056
11422.00,0.2054
11421.00,0.2054
11420.00,0.2056
11419.00,0.2057
11418.00,0.2057
11417.00,0.2053
11416.00,0.2049
11415.00,0.2046
11414.00,0.2047
11413.00,0.2051
11412.00,0.2056
11411.00,0.2058
11410.00,0.2057
11409.00,0.2052
11408.00,0.2047
11407.00,0.2045
11406.00,0.2046
11405.00,0.2050
11404.00,0.2052
11403.00,0.2052
11402.00,0.2049
11401.00,0.2045
11400.00,0.2044
11399.00,0.2046
11398.00,0.2052
11397.00,0.2058
11396.00,0.2062
11395.00,0.2063
11394.00,0.2061
11393.00,0.2059
11392.00,0.2058
11391.00,0.2060
11390.00,0.2062
11389.00,0.2064
11388.00,0.2063
11387.00,0.2060
11386.00,0.2056
11385.00,0.2053
11384.00,0.2053
11383.00,0.2056
11382.00,0.2060
11381.00,0.2064
11380.00,0.2065
11379.00,0.2064
11378.00,0.2061
11377.00,0.2058
11376.00,0.2057
11375.00,0.2058
11374.00,0.2059
11373.00,0.2060
11372.00,0.2060
11371.00,0.2059
11370.00,0.2057
11369.00,0.2056
11368.00,0.2054
11367.00,0.2053
11366.00,0.2051
11365.00,0.2049
11364.00,0.2048
11363.00,0.2047
11362.00,0.2048
11361.00,0.2049
11360.00,0.2049
11359.00,0.2048
11358.00,0.2048
11357.00,0.2048
11356.00,0.2049
11355.00,0.2051
11354.00,0.2052
11353.00,0.2052
11352.00,0.2049
11351.00,0.2047
11350.00,0.2047
11349.00,0.2049
11348.00,0.2051
11347.00,0.2051
11346.00,0.2049
11345.00,0.2045
11344.00,0.2041
11343.00,0.2040
11342.00,0.2042
11341.00,0.2048
11340.00,0.2052
11339.00,0.2054
11338.00,0.2053
11337.00,0.2051
11336.00,0.2050
11335.00,0.2053
11334.00,0.2057
11333.00,0.2062
11332.00,0.2065
11331.00,0.2065
11330.00,0.2063
11329.00,0.2061
11328.00,0.2062
11327.00,0.2064
11326.00,0.2067
11325.00,0.2070
11324.00,0.2071
11323.00,0.2071
11322.00,0.2070
11321.00,0.2069
11320.00,0.2069
11319.00,0.2070
11318.00,0.2070
11317.00,0.2071
11316.00,0.2070
11315.00,0.2069
11314.00,0.2066
11313.00,0.2063
11312.00,0.2060
11311.00,0.2056
11310.00,0.2053
11309.00,0.2051
11308.00,0.2049
11307.00,0.2049
11306.00,0.2051
11305.00,0.2054
11304.00,0.2058
11303.00,0.2061
11302.00,0.2063
11301.00,0.2063
11300.00,0.2062
11299.00,0.2061
11298.00,0.2063
11297.00,0.2066
11296.00,0.2070
11295.00,0.2074
11294.00,0.2074
11293.00,0.2070
11292.00,0.2065
11291.00,0.2061
11290.00,0.2059
11289.00,0.2060
11288.00,0.2063
11287.00,0.2066
11286.00,0.2067
11285.00,0.2067
11284.00,0.2064
11283.00,0.2062
11282.00,0.2061
11281.00,0.2061
11280.00,0.2062
11279.00,0.2063
11278.00,0.2064
11277.00,0.2063
11276.00,0.2063
11275.00,0.2062
11274.00,0.2062
11273.00,0.2061
11272.00,0.2061
11271.00,0.2062
11270.00,0.2063
11269.00,0.2064
11268.00,0.2064
11267.00,0.2064
11266.00,0.2062
11265.00,0.2061
11264.00,0.2060
11263.00,0.2059
11262.00,0.2059
11261.00,0.2059
11260.00,0.2059
11259.00,0.2057
11258.00,0.2055
11257.00,0.2054
11256.00,0.2053
11255.00,0.2054
11254.00,0.2055
11253.00,0.2056
11252.00,0.2056
11251.00,0.2056
11250.00,0.2056
11249.00,0.2057
11248.00,0.2060
11247.00,0.2062
11246.00,0.2064
11245.00,0.2064
11244.00,0.2064
11243.00,0.2064
11242.00,0.2064
11241.00,0.2064
11240.00,0.2064
11239.00,0.2063
11238.00,0.2061
11237.00,0.2060
11236.00,0.2059
11235.00,0.2058
11234.00,0.2057
11233.00,0.2056
11232.00,0.2055
11231.00,0.2055
11230.00,0.2056
11229.00,0.2058
11228.00,0.2061
11227.00,0.2063
11226.00,0.2064
11225.00,0.2063
11224.00,0.2062
11223.00,0.2061
11222.00,0.2061
11221.00,0.2061
11220.00,0.2061
11219.00,0.2061
11218.00,0.2059
11217.00,0.2058
11216.00,0.2057
11215.00,0.2056
11214.00,0.2057
11213.00,0.2057
11212.00,0.2058
11211.00,0.2059
11210.00,0.2061
11209.00,0.2064
11208.00,0.2067
11207.00,0.2069
11206.00,0.2070
11205.00,0.2069
11204.00,0.2068
11203.00,0.2067
11202.00,0.2067
11201.00,0.2068
11200.00,0.2067
11199.00,0.2065
11198.00,0.2061
11197.00,0.2057
11196.00,0.2055
11195.00,0.2055
11194.00,0.2057
11193.00,0.2059
11192.00,0.2061
11191.00,0.2060
11190.00,0.2059
11189.00,0.2058
11188.00,0.2059
11187.00,0.2060
11186.00,0.2062
11185.00,0.2062
11184.00,0.2061
11183.00,0.2060
11182.00,0.2058
11181.00,0.2058
11180.00,0.2058
11179.00,0.2058
11178.00,0.2057
11177.00,0.2055
11176.00,0.2052
11175.00,0.2050
11174.00,0.2050
11173.00,0.2051
11172.00,0.2053
11171.00,0.2055
11170.00,0.2055
11169.00,0.2053
11168.00,0.2051
11167.00,0.2050
11166.00,0.2052
11165.00,0.2056
11164.00,0.2060
11163.00,0.2063
11162.00,0.2064
11161.00,0.2063
11160.00,0.2061
11159.00,0.2061
11158.00,0.2062
11157.00,0.2064
11156.00,0.2065
11155.00,0.2065
11154.00,0.2064
11153.00,0.2064
11152.00,0.2064
11151.00,0.2066
11150.00,0.2067
11149.00,0.2068
11148.00,0.2067
11147.00,0.2066
11146.00,0.2065
11145.00,0.2067
11144.00,0.2069
11143.00,0.2070
11142.00,0.2068
11141.00,0.2065
11140.00,0.2060
11139.00,0.2056
11138.00,0.2055
11137.00,0.2058
11136.00,0.2062
11135.00,0.2065
11134.00,0.2065
11133.00,0.2063
11132.00,0.2061
11131.00,0.2060
11130.00,0.2062
11129.00,0.2066
11128.00,0.2071
11127.00,0.2074
11126.00,0.2074
11125.00,0.2071
11124.00,0.2067
11123.00,0.2063
11122.00,0.2060
11121.00,0.2058
11120.00,0.2057
11119.00,0.2058
11118.00,0.2059
11117.00,0.2061
11116.00,0.2062
11115.00,0.2063
11114.00,0.2063
11113.00,0.2062
11112.00,0.2062
11111.00,0.2063
11110.00,0.2064
11109.00,0.2066
11108.00,0.2068
11107.00,0.2068
11106.00,0.2067
11105.00,0.2065
11104.00,0.2063
11103.00,0.2062
11102.00,0.2063
11101.00,0.2064
11100.00,0.2066
11099.00,0.2068
11098.00,0.2068
11097.00,0.2069
11096.00,0.2068
11095.00,0.2068
11094.00,0.2068
11093.00,0.2067
11092.00,0.2066
11091.00,0.2066
11090.00,0.2065
11089.00,0.2065
11088.00,0.2066
11087.00,0.2067
11086.00,0.2068
11085.00,0.2068
11084.00,0.2066
11083.00,0.2064
11082.00,0.2062
11081.00,0.2060
11080.00,0.2061
11079.00,0.2062
11078.00,0.2063
11077.00,0.2063
11076.00,0.2061
11075.00,0.2058
11074.00,0.2056
11073.00,0.2056
11072.00,0.2059
11071.00,0.2063
11070.00,0.2066
11069.00,0.2068
11068.00,0.2068
11067.00,0.2066
11066.00,0.2063
11065.00,0.2062
11064.00,0.2063
11063.00,0.2067
11062.00,0.2070
11061.00,0.2072
11060.00,0.2072
11059.00,0.2071
11058.00,0.2069
11057.00,0.2070
11056.00,0.2073
11055.00,0.2077
11054.00,0.2081
11053.00,0.2082
11052.00,0.2080
11051.00,0.2076
11050.00,0.2072
11049.00,0.2070
11048.00,0.2070
11047.00,0.2070
11046.00,0.2070
11045.00,0.2069
11044.00,0.2066
11043.00,0.2063
11042.00,0.2061
11041.00,0.2059
11040.00,0.2060
11039.00,0.2061
11038.00,0.2062
11037.00,0.2063
11036.00,0.2064
11035.00,0.2064
11034.00,0.2063
11033.00,0.2062
11032.00,0.2062
11031.00,0.2062
11030.00,0.2065
11029.00,0.2068
11028.00,0.2070
11027.00,0.2071
11026.00,0.2070
11025.00,0.2068
11024.00,0.2067
11023.00,0.2067
11022.00,0.2067
11021.00,0.2067
11020.00,0.2066
11019.00,0.2063
11018.00,0.2060
11017.00,0.2058
11016.00,0.2058
11015.00,0.2060
11014.00,0.2062
11013.00,0.2064
11012.00,0.2065
11011.00,0.2066
11010.00,0.2066
11009.00,0.2068
11008.00,0.2070
11007.00,0.2071
11006.00,0.2071
11005.00,0.2070
11004.00,0.2067
11003.00,0.2065
11002.00,0.2063
11001.00,0.2061
11000.00,0.2060
10999.00,0.2059
10998.00,0.2059
10997.00,0.2059
10996.00,0.2061
10995.00,0.2064
10994.00,0.2066
10993.00,0.2067
10992.00,0.2066
10991.00,0.2065
10990.00,0.2063
10989.00,0.2063
10988.00,0.2064
10987.00,0.2066
10986.00,0.2067
10985.00,0.2067
10984.00,0.2065
10983.00,0.2062
10982.00,0.2059
10981.00,0.2059
10980.00,0.2062
10979.00,0.2066
10978.00,0.2070
10977.00,0.2072
10976.00,0.2070
10975.00,0.2067
10974.00,0.2065
10973.00,0.2065
10972.00,0.2068
10971.00,0.2072
10970.00,0.2075
10969.00,0.2077
10968.00,0.2076
10967.00,0.2074
10966.00,0.2072
10965.00,0.2070
10964.00,0.2070
10963.00,0.2071
10962.00,0.2072
10961.00,0.2073
10960.00,0.2073
10959.00,0.2072
10958.00,0.2070
10957.00,0.2067
10956.00,0.2065
10955.00,0.2065
10954.00,0.2067
10953.00,0.2069
10952.00,0.2072
10951.00,0.2073
10950.00,0.2074
10949.00,0.2073
10948.00,0.2073
10947.00,0.2073
10946.00,0.2074
10945.00,0.2075
10944.00,0.2075
10943.00,0.2075
10942.00,0.2074
10941.00,0.2073
10940.00,0.2071
10939.00,0.2070
10938.00,0.2069
10937.00,0.2068
10936.00,0.2067
10935.00,0.2067
10934.00,0.2068
10933.00,0.2068
10932.00,0.2069
10931.00,0.2069
10930.00,0.2069
10929.00,0.2068
10928.00,0.2067
10927.00,0.2066
10926.00,0.2066
10925.00,0.2067
10924.00,0.2069
10923.00,0.2070
10922.00,0.2070
10921.00,0.2069
10920.00,0.2068
10919.00,0.2069
10918.00,0.2070
10917.00,0.2073
10916.00,0.2075
10915.00,0.2075
10914.00,0.2073
10913.00,0.2070
10912.00,0.2068
10911.00,0.2068
10910.00,0.2070
10909.00,0.2073
10908.00,0.2075
10907.00,0.2074
10906.00,0.2071
10905.00,0.2067
10904.00,0.2065
10903.00,0.2065
10902.00,0.2068
10901.00,0.2070
10900.00,0.2070
10899.00,0.2067
10898.00,0.2062
10897.00,0.2058
10896.00,0.2057
10895.00,0.2059
10894.00,0.2062
10893.00,0.2064
10892.00,0.2064
10891.00,0.2063
10890.00,0.2062
10889.00,0.2061
10888.00,0.2062
10887.00,0.2064
10886.00,0.2064
10885.00,0.2063
10884.00,0.2061
10883.00,0.2060
10882.00,0.2060
10881.00,0.2060
10880.00,0.2061
10879.00,0.2062
10878.00,0.2062
10877.00,0.2061
10876.00,0.2060
10875.00,0.2059
10874.00,0.2059
10873.00,0.2060
10872.00,0.2062
10871.00,0.2065
10870.00,0.2067
10869.00,0.2069
10868.00,0.2069
10867.00,0.2068
10866.00,0.2066
10865.00,0.2065
10864.00,0.2064
10863.00,0.2065
10862.00,0.2067
10861.00,0.2067
10860.00,0.2066
10859.00,0.2064
10858.00,0.2063
10857.00,0.2062
10856.00,0.2063
10855.00,0.2064
10854.00,0.2065
10853.00,0.2066
10852.00,0.2067
10851.00,0.2069
10850.00,0.2071
10849.00,0.2073
10848.00,0.2074
10847.00,0.2073
10846.00,0.2071
10845.00,0.2069
10844.00,0.2068
10843.00,0.2067
10842.00,0.2068
10841.00,0.2069
10840.00,0.2070
10839.00,0.2070
10838.00,0.2069
10837.00,0.2068
10836.00,0.2068
10835.00,0.2068
10834.00,0.2068
10833.00,0.2068
10832.00,0.2067
10831.00,0.2065
10830.00,0.2062
10829.00,0.2060
10828.00,0.2059
10827.00,0.2059
10826.00,0.2059
10825.00,0.2059
10824.00,0.2058
10823.00,0.2057
10822.00,0.2057
10821.00,0.2059
10820.00,0.2062
10819.00,0.2066
10818.00,0.2069
10817.00,0.2070
10816.00,0.2069
10815.00,0.2068
10814.00,0.2068
10813.00,0.2069
10812.00,0.2072
10811.00,0.2074
10810.00,0.2075
10809.00,0.2074
10808.00,0.2072
10807.00,0.2070
10806.00,0.2069
10805.00,0.2069
10804.00,0.2070
10803.00,0.2070
10802.00,0.2070
10801.00,0.2068
10800.00,0.2065
10799.00,0.2064
10798.00,0.2063
10797.00,0.2064
10796.00,0.2065
10795.00,0.2066
10794.00,0.2066
10793.00,0.2066
10792.00,0.2064
10791.00,0.2063
10790.00,0.2063
10789.00,0.2063
10788.00,0.2063
10787.00,0.2063
10786.00,0.2062
10785.00,0.2061
10784.00,0.2060
10783.00,0.2062
10782.00,0.2064
10781.00,0.2066
10780.00,0.2067
10779.00,0.2067
10778.00,0.2066
10777.00,0.2065
10776.00,0.2065
10775.00,0.2066
10774.00,0.2067
10773.00,0.2067
10772.00,0.2066
10771.00,0.2064
10770.00,0.2061
10769.00,0.2060
10768.00,0.2061
10767.00,0.2063
10766.00,0.2066
10765.00,0.2068
10764.00,0.2068
10763.00,0.2067
10762.00,0.2065
10761.00,0.2063
10760.00,0.2062
10759.00,0.2061
10758.00,0.2060
10757.00,0.2059
10756.00,0.2058
10755.00,0.2058
10754.00,0.2058
10753.00,0.2059
10752.00,0.2061
10751.00,0.2063
10750.00,0.2065
10749.00,0.2067
10748.00,0.2069
10747.00,0.2070
10746.00,0.2072
10745.00,0.2073
10744.00,0.2073
10743.00,0.2072
10742.00,0.2071
10741.00,0.2070
10740.00,0.2069
10739.00,0.2069
10738.00,0.2070
10737.00,0.2071
10736.00,0.2070
10735.00,0.2068
10734.00,0.2066
10733.00,0.2065
10732.00,0.2066
10731.00,0.2068
10730.00,0.2069
10729.00,0.2070
10728.00,0.2069
10727.00,0.2067
10726.00,0.2065
10725.00,0.2064
10724.00,0.2063
10723.00,0.2063
10722.00,0.2063
10721.00,0.2063
10720.00,0.2063
10719.00,0.2062
10718.00,0.2062
10717.00,0.2062
10716.00,0.2062
10715.00,0.2062
10714.00,0.2062
10713.00,0.2062
10712.00,0.2063
10711.00,0.2064
10710.00,0.2064
10709.00,0.2064
10708.00,0.2064
10707.00,0.2064
10706.00,0.2065
10705.00,0.2067
10704.00,0.2070
10703.00,0.2073
10702.00,0.2075
10701.00,0.2076
10700.00,0.2076
10699.00,0.2076
10698.00,0.2074
10697.00,0.2073
10696.00,0.2070
10695.00,0.2067
10694.00,0.2063
10693.00,0.2060
10692.00,0.2058
10691.00,0.2058
10690.00,0.2060
10689.00,0.2062
10688.00,0.2064
10687.00,0.2064
10686.00,0.2064
10685.00,0.2064
10684.00,0.2065
10683.00,0.2066
10682.00,0.2068
10681.00,0.2069
10680.00,0.2069
10679.00,0.2068
10678.00,0.2066
10677.00,0.2065
10676.00,0.2064
10675.00,0.2064
10674.00,0.2065
10673.00,0.2067
10672.00,0.2069
10671.00,0.2071
10670.00,0.2072
10669.00,0.2073
10668.00,0.2073
10667.00,0.2073
10666.00,0.2072
10665.00,0.2072
10664.00,0.2073
10663.00,0.2073
10662.00,0.2072
10661.00,0.2071
10660.00,0.2070
10659.00,0.2069
10658.00,0.2068
10657.00,0.2068
10656.00,0.2068
10655.00,0.2068
10654.00,0.2068
10653.00,0.2067
10652.00,0.2067
10651.00,0.2067
10650.00,0.2068
10649.00,0.2069
10648.00,0.2070
10647.00,0.2071
10646.00,0.2071
10645.00,0.2071
10644.00,0.2071
10643.00,0.2072
10642.00,0.2072
10641.00,0.2071
10640.00,0.2071
10639.00,0.2070
10638.00,0.2070
10637.00,0.2070
10636.00,0.2070
10635.00,0.2070
10634.00,0.2069
10633.00,0.2069
10632.00,0.2070
10631.00,0.2072
10630.00,0.2074
10629.00,0.2075
10628.00,0.2073
10627.00,0.2071
10626.00,0.2069
10625.00,0.2069
10624.00,0.2071
10623.00,0.2072
10622.00,0.2071
10621.00,0.2068
10620.00,0.2065
10619.00,0.2064
10618.00,0.2066
10617.00,0.2070
10616.00,0.2074
10615.00,0.2076
10614.00,0.2077
10613.00,0.2077
10612.00,0.2077
10611.00,0.2079
10610.00,0.2081
10609.00,0.2083
10608.00,0.2082
10607.00,0.2080
10606.00,0.2079
10605.00,0.2078
10604.00,0.2078
10603.00,0.2077
10602.00,0.2075
10601.00,0.2074
10600.00,0.2073
10599.00,0.2074
10598.00,0.2076
10597.00,0.2079
10596.00,0.2081
10595.00,0.2080
10594.00,0.2078
10593.00,0.2077
10592.00,0.2078
10591.00,0.2080
10590.00,0.2083
10589.00,0.2084
10588.00,0.2082
10587.00,0.2079
10586.00,0.2075
10585.00,0.2073
10584.00,0.2072
10583.00,0.2073
10582.00,0.2075
10581.00,0.2076
10580.00,0.2076
10579.00,0.2076
10578.00,0.2075
10577.00,0.2076
10576.00,0.2078
10575.00,0.2080
10574.00,0.2082
10573.00,0.2083
10572.00,0.2083
10571.00,0.2082
10570.00,0.2082
10569.00,0.2083
10568.00,0.2084
10567.00,0.2085
10566.00,0.2087
10565.00,0.2088
10564.00,0.2088
10563.00,0.2087
10562.00,0.2086
10561.00,0.2086
10560.00,0.2087
10559.00,0.2088
10558.00,0.2089
10557.00,0.2090
10556.00,0.2089
10555.00,0.2088
10554.00,0.2088
10553.00,0.2089
10552.00,0.2090
10551.00,0.2092
10550.00,0.2094
10549.00,0.2094
10548.00,0.2094
10547.00,0.2093
10546.00,0.2091
10545.00,0.2090
10544.00,0.2089
10543.00,0.2087
10542.00,0.2087
10541.00,0.2088
10540.00,0.2090
10539.00,0.2093
10538.00,0.2094
10537.00,0.2094
10536.00,0.2092
10535.00,0.2091
10534.00,0.2091
10533.00,0.2091
10532.00,0.2092
10531.00,0.2093
10530.00,0.2092
10529.00,0.2091
10528.00,0.2089
10527.00,0.2088
10526.00,0.2088
10525.00,0.2088
10524.00,0.2089
10523.00,0.2091
10522.00,0.2092
10521.00,0.2093
10520.00,0.2094
10519.00,0.2093
10518.00,0.2090
10517.00,0.2088
10516.00,0.2087
10515.00,0.2087
10514.00,0.2088
10513.00,0.2090
10512.00,0.2092
10511.00,0.2092
10510.00,0.2093
10509.00,0.2093
10508.00,0.2095
10507.00,0.2097
10506.00,0.2100
10505.00,0.2102
10504.00,0.2103
10503.00,0.2102
10502.00,0.2100
10501.00,0.2097
10500.00,0.2095
10499.00,0.2096
10498.00,0.2097
10497.00,0.2098
10496.00,0.2098
10495.00,0.2096
10494.00,0.2094
10493.00,0.2094
10492.00,0.2097
10491.00,0.2102
10490.00,0.2106
10489.00,0.2109
10488.00,0.2108
10487.00,0.2106
10486.00,0.2104
10485.00,0.2104
10484.00,0.2105
10483.00,0.2106
10482.00,0.2106
10481.00,0.2105
10480.00,0.2102
10479.00,0.2098
10478.00,0.2096
10477.00,0.2095
10476.00,0.2097
10475.00,0.2100
10474.00,0.2103
10473.00,0.2105
10472.00,0.2105
10471.00,0.2105
10470.00,0.2104
10469.00,0.2105
10468.00,0.2106
10467.00,0.2107
10466.00,0.2108
10465.00,0.2108
10464.00,0.2106
10463.00,0.2105
10462.00,0.2103
10461.00,0.2103
10460.00,0.2103
10459.00,0.2104
10458.00,0.2104
10457.00,0.2104
10456.00,0.2104
10455.00,0.2104
10454.00,0.2105
10453.00,0.2106
10452.00,0.2105
10451.00,0.2105
10450.00,0.2103
10449.00,0.2103
10448.00,0.2102
10447.00,0.2103
10446.00,0.2104
10445.00,0.2104
10444.00,0.2103
10443.00,0.2102
10442.00,0.2101
10441.00,0.2103
10440.00,0.2108
10439.00,0.2113
10438.00,0.2117
10437.00,0.2119
10436.00,0.2119
10435.00,0.2117
10434.00,0.2116
10433.00,0.2117
10432.00,0.2118
10431.00,0.2120
10430.00,0.2120
10429.00,0.2119
10428.00,0.2118
10427.00,0.2117
10426.00,0.2116
10425.00,0.2117
10424.00,0.2118
10423.00,0.2118
10422.00,0.2118
10421.00,0.2117
10420.00,0.2116
10419.00,0.2114
10418.00,0.2111
10417.00,0.2110
10416.00,0.2108
10415.00,0.2108
10414.00,0.2110
10413.00,0.2112
10412.00,0.2115
10411.00,0.2118
10410.00,0.2121
10409.00,0.2122
10408.00,0.2122
10407.00,0.2122
10406.00,0.2122
10405.00,0.2123
10404.00,0.2125
10403.00,0.2126
10402.00,0.2126
10401.00,0.2125
10400.00,0.2123
10399.00,0.2122
10398.00,0.2122
10397.00,0.2124
10396.00,0.2126
10395.00,0.2127
10394.00,0.2127
10393.00,0.2127
10392.00,0.2126
10391.00,0.2126
10390.00,0.2127
10389.00,0.2128
10388.00,0.2129
10387.00,0.2129
10386.00,0.2129
10385.00,0.2128
10384.00,0.2127
10383.00,0.2126
10382.00,0.2124
10381.00,0.2123
10380.00,0.2122
10379.00,0.2121
10378.00,0.2122
10377.00,0.2123
10376.00,0.2125
10375.00,0.2125
10374.00,0.2126
10373.00,0.2126
10372.00,0.2127
10371.00,0.2127
10370.00,0.2127
10369.00,0.2126
10368.00,0.2125
10367.00,0.2124
10366.00,0.2125
10365.00,0.2126
10364.00,0.2127
10363.00,0.2127
10362.00,0.2127
10361.00,0.2128
10360.00,0.2130
10359.00,0.2133
10358.00,0.2135
10357.00,0.2137
10356.00,0.2136
10355.00,0.2134
10354.00,0.2131
10353.00,0.2130
10352.00,0.2130
10351.00,0.2130
10350.00,0.2130
10349.00,0.2130
10348.00,0.2128
10347.00,0.2128
10346.00,0.2128
10345.00,0.2130
10344.00,0.2133
10343.00,0.2136
10342.00,0.2137
10341.00,0.2137
10340.00,0.2136
10339.00,0.2136
10338.00,0.2136
10337.00,0.2137
10336.00,0.2139
10335.00,0.2140
10334.00,0.2140
10333.00,0.2140
10332.00,0.2139
10331.00,0.2138
10330.00,0.2138
10329.00,0.2137
10328.00,0.2138
10327.00,0.2138
10326.00,0.2140
10325.00,0.2142
10324.00,0.2143
10323.00,0.2143
10322.00,0.2142
10321.00,0.2140
10320.00,0.2139
10319.00,0.2138
10318.00,0.2139
10317.00,0.2141
10316.00,0.2143
10315.00,0.2144
10314.00,0.2143
10313.00,0.2141
10312.00,0.2139
10311.00,0.2137
10310.00,0.2138
10309.00,0.2141
10308.00,0.2144
10307.00,0.2147
10306.00,0.2147
10305.00,0.2146
10304.00,0.2144
10303.00,0.2144
10302.00,0.2145
10301.00,0.2146
10300.00,0.2147
10299.00,0.2146
10298.00,0.2143
10297.00,0.2140
10296.00,0.2138
10295.00,0.2137
10294.00,0.2138
10293.00,0.2140
10292.00,0.2141
10291.00,0.2143
10290.00,0.2144
10289.00,0.2145
10288.00,0.2146
10287.00,0.2148
10286.00,0.2150
10285.00,0.2151
10284.00,0.2152
10283.00,0.2152
10282.00,0.2150
10281.00,0.2148
10280.00,0.2148
10279.00,0.2149
10278.00,0.2151
10277.00,0.2153
10276.00,0.2153
10275.00,0.2152
10274.00,0.2151
10273.00,0.2151
10272.00,0.2151
10271.00,0.2152
10270.00,0.2152
10269.00,0.2152
10268.00,0.2151
10267.00,0.2152
10266.00,0.2154
10265.00,0.2157
10264.00,0.2158
10263.00,0.2159
10262.00,0.2159
10261.00,0.2159
10260.00,0.2160
10259.00,0.2161
10258.00,0.2161
10257.00,0.2160
10256.00,0.2158
10255.00,0.2156
10254.00,0.2154
10253.00,0.2155
10252.00,0.2157
10251.00,0.2158
10250.00,0.2160
10249.00,0.2161
10248.00,0.2161
10247.00,0.2161
10246.00,0.2159
10245.00,0.2157
10244.00,0.2156
10243.00,0.2156
10242.00,0.2157
10241.00,0.2158
10240.00,0.2159
10239.00,0.2157
10238.00,0.2155
10237.00,0.2154
10236.00,0.2156
10235.00,0.2159
10234.00,0.2163
10233.00,0.2165
10232.00,0.2165
10231.00,0.2163
10230.00,0.2161
10229.00,0.2160
10228.00,0.2160
10227.00,0.2162
10226.00,0.2164
10225.00,0.2166
10224.00,0.2166
10223.00,0.2166
10222.00,0.2166
10221.00,0.2167
10220.00,0.2168
10219.00,0.2170
10218.00,0.2171
10217.00,0.2170
10216.00,0.2168
10215.00,0.2165
10214.00,0.2163
10213.00,0.2162
10212.00,0.2162
10211.00,0.2162
10210.00,0.2162
10209.00,0.2160
10208.00,0.2159
10207.00,0.2159
10206.00,0.2160
10205.00,0.2162
10204.00,0.2165
10203.00,0.2167
10202.00,0.2168
10201.00,0.2168
10200.00,0.2168
10199.00,0.2168
10198.00,0.2169
10197.00,0.2171
10196.00,0.2173
10195.00,0.2174
10194.00,0.2173
10193.00,0.2171
10192.00,0.2169
10191.00,0.2169
10190.00,0.2170
10189.00,0.2171
10188.00,0.2172
10187.00,0.2171
10186.00,0.2170
10185.00,0.2168
10184.00,0.2168
10183.00,0.2169
10182.00,0.2171
10181.00,0.2172
10180.00,0.2173
10179.00,0.2173
10178.00,0.2173
10177.00,0.2173
10176.00,0.2174
10175.00,0.2174
10174.00,0.2174
10173.00,0.2174
10172.00,0.2173
10171.00,0.2172
10170.00,0.2171
10169.00,0.2171
10168.00,0.2171
10167.00,0.2172
10166.00,0.2173
10165.00,0.2175
10164.00,0.2177
10163.00,0.2178
10162.00,0.2178
10161.00,0.2177
10160.00,0.2177
10159.00,0.2176
10158.00,0.2176
10157.00,0.2176
10156.00,0.2176
10155.00,0.2176
10154.00,0.2174
10153.00,0.2172
10152.00,0.2171
10151.00,0.2171
10150.00,0.2172
10149.00,0.2175
10148.00,0.2178
10147.00,0.2179
10146.00,0.2179
10145.00,0.2177
10144.00,0.2176
10143.00,0.2175
10142.00,0.2176
10141.00,0.2177
10140.00,0.2178
10139.00,0.2178
10138.00,0.2177
10137.00,0.2176
10136.00,0.2175
10135.00,0.2175
10134.00,0.2175
10133.00,0.2175
10132.00,0.2174
10131.00,0.2174
10130.00,0.2174
10129.00,0.2174
10128.00,0.2175
10127.00,0.2176
10126.00,0.2176
10125.00,0.2175
10124.00,0.2173
10123.00,0.2172
10122.00,0.2173
10121.00,0.2175
10120.00,0.2178
10119.00,0.2179
10118.00,0.2180
10117.00,0.2180
10116.00,0.2181
10115.00,0.2183
10114.00,0.2185
10113.00,0.2187
10112.00,0.2186
10111.00,0.2183
10110.00,0.2180
10109.00,0.2178
10108.00,0.2177
10107.00,0.2177
10106.00,0.2176
10105.00,0.2175
10104.00,0.2173
10103.00,0.2172
10102.00,0.2173
10101.00,0.2175
10100.00,0.2178
10099.00,0.2180
10098.00,0.2181
10097.00,0.2181
10096.00,0.2181
10095.00,0.2180
10094.00,0.2178
10093.00,0.2176
10092.00,0.2176
10091.00,0.2176
10090.00,0.2178
10089.00,0.2180
10088.00,0.2180
10087.00,0.2179
10086.00,0.2177
10085.00,0.2176
10084.00,0.2177
10083.00,0.2179
10082.00,0.2181
10081.00,0.2182
10080.00,0.2181
10079.00,0.2180
10078.00,0.2180
10077.00,0.2181
10076.00,0.2183
10075.00,0.2185
10074.00,0.2187
10073.00,0.2187
10072.00,0.2188
10071.00,0.2188
10070.00,0.2188
10069.00,0.2187
10068.00,0.2185
10067.00,0.2183
10066.00,0.2180
10065.00,0.2178
10064.00,0.2177
10063.00,0.2176
10062.00,0.2176
10061.00,0.2177
10060.00,0.2178
10059.00,0.2179
10058.00,0.2179
10057.00,0.2180
10056.00,0.2180
10055.00,0.2181
10054.00,0.2182
10053.00,0.2182
10052.00,0.2182
10051.00,0.2181
10050.00,0.2179
10049.00,0.2177
10048.00,0.2176
10047.00,0.2176
10046.00,0.2176
10045.00,0.2177
10044.00,0.2177
10043.00,0.2177
10042.00,0.2177
10041.00,0.2177
10040.00,0.2178
10039.00,0.2179
10038.00,0.2179
10037.00,0.2179
10036.00,0.2177
10035.00,0.2176
10034.00,0.2176
10033.00,0.2177
10032.00,0.2178
10031.00,0.2178
10030.00,0.2177
10029.00,0.2175
10028.00,0.2174
10027.00,0.2175
10026.00,0.2177
10025.00,0.2180
10024.00,0.2182
10023.00,0.2183
10022.00,0.2182
10021.00,0.2182
10020.00,0.2182
10019.00,0.2183
10018.00,0.2184
10017.00,0.2184
10016.00,0.2183
10015.00,0.2182
10014.00,0.2181
10013.00,0.2180
10012.00,0.2180
10011.00,0.2180
10010.00,0.2181
10009.00,0.2181
10008.00,0.2181
10007.00,0.2181
10006.00,0.2180
10005.00,0.2179
10004.00,0.2178
10003.00,0.2178
10002.00,0.2179
10001.00,0.2181
10000.00,0.2182
9999.00,0.2183
9998.00,0.2182
9997.00,0.2182
9996.00,0.2183
9995.00,0.2185
9994.00,0.2187
9993.00,0.2188
9992.00,0.2186
9991.00,0.2184
9990.00,0.2181
9989.00,0.2180
9988.00,0.2180
9987.00,0.2180
9986.00,0.2180
9985.00,0.2179
9984.00,0.2177
9983.00,0.2176
9982.00,0.2176
9981.00,0.2177
9980.00,0.2178
9979.00,0.2178
9978.00,0.2178
9977.00,0.2178
9976.00,0.2178
9975.00,0.2178
9974.00,0.2179
9973.00,0.2179
9972.00,0.2178
9971.00,0.2178
9970.00,0.2179
9969.00,0.2179
9968.00,0.2180
9967.00,0.2181
9966.00,0.2181
9965.00,0.2182
9964.00,0.2183
9963.00,0.2184
9962.00,0.2185
9961.00,0.2186
9960.00,0.2185
9959.00,0.2184
9958.00,0.2183
9957.00,0.2182
9956.00,0.2181
9955.00,0.2181
9954.00,0.2181
9953.00,0.2181
9952.00,0.2180
9951.00,0.2179
9950.00,0.2180
9949.00,0.2181
9948.00,0.2182
9947.00,0.2183
9946.00,0.2181
9945.00,0.2179
9944.00,0.2177
9943.00,0.2177
9942.00,0.2178
9941.00,0.2179
9940.00,0.2180
9939.00,0.2179
9938.00,0.2178
9937.00,0.2177
9936.00,0.2177
9935.00,0.2177
9934.00,0.2177
9933.00,0.2177
9932.00,0.2176
9931.00,0.2174
9930.00,0.2174
9929.00,0.2174
9928.00,0.2176
9927.00,0.2177
9926.00,0.2178
9925.00,0.2178
9924.00,0.2179
9923.00,0.2181
9922.00,0.2182
9921.00,0.2184
9920.00,0.2184
9919.00,0.2183
9918.00,0.2182
9917.00,0.2181
9916.00,0.2180
9915.00,0.2181
9914.00,0.2181
9913.00,0.2181
9912.00,0.2180
9911.00,0.2180
9910.00,0.2180
9909.00,0.2180
9908.00,0.2181
9907.00,0.2181
9906.00,0.2180
9905.00,0.2181
9904.00,0.2181
9903.00,0.2182
9902.00,0.2183
9901.00,0.2182
9900.00,0.2181
9899.00,0.2179
9898.00,0.2178
9897.00,0.2177
9896.00,0.2177
9895.00,0.2177
9894.00,0.2177
9893.00,0.2176
9892.00,0.2175
9891.00,0.2175
9890.00,0.2175
9889.00,0.2176
9888.00,0.2178
9887.00,0.2179
9886.00,0.2180
9885.00,0.2181
9884.00,0.2180
9883.00,0.2179
9882.00,0.2178
9881.00,0.2177
9880.00,0.2177
9879.00,0.2176
9878.00,0.2176
9877.00,0.2175
9876.00,0.2175
9875.00,0.2175
9874.00,0.2175
9873.00,0.2176
9872.00,0.2177
9871.00,0.2178
9870.00,0.2180
9869.00,0.2181
9868.00,0.2182
9867.00,0.2182
9866.00,0.2181
9865.00,0.2180
9864.00,0.2179
9863.00,0.2179
9862.00,0.2178
9861.00,0.2179
9860.00,0.2179
9859.00,0.2179
9858.00,0.2178
9857.00,0.2178
9856.00,0.2178
9855.00,0.2178
9854.00,0.2179
9853.00,0.2179
9852.00,0.2179
9851.00,0.2178
9850.00,0.2176
9849.00,0.2175
9848.00,0.2176
9847.00,0.2177
9846.00,0.2178
9845.00,0.2178
9844.00,0.2178
9843.00,0.2177
9842.00,0.2177
9841.00,0.2177
9840.00,0.2178
9839.00,0.2177
9838.00,0.2176
9837.00,0.2174
9836.00,0.2173
9835.00,0.2173
9834.00,0.2173
9833.00,0.2174
9832.00,0.2174
9831.00,0.2173
9830.00,0.2173
9829.00,0.2174
9828.00,0.2176
9827.00,0.2178
9826.00,0.2179
9825.00,0.2179
9824.00,0.2178
9823.00,0.2177
9822.00,0.2177
9821.00,0.2178
9820.00,0.2180
9819.00,0.2182
9818.00,0.2182
9817.00,0.2182
9816.00,0.2180
9815.00,0.2179
9814.00,0.2178
9813.00,0.2178
9812.00,0.2178
9811.00,0.2178
9810.00,0.2176
9809.00,0.2174
9808.00,0.2172
9807.00,0.2171
9806.00,0.2171
9805.00,0.2172
9804.00,0.2173
9803.00,0.2173
9802.00,0.2173
9801.00,0.2172
9800.00,0.2172
9799.00,0.2172
9798.00,0.2173
9797.00,0.2174
9796.00,0.2176
9795.00,0.2178
9794.00,0.2179
9793.00,0.2179
9792.00,0.2178
9791.00,0.2177
9790.00,0.2176
9789.00,0.2176
9788.00,0.2177
9787.00,0.2177
9786.00,0.2175
9785.00,0.2173
9784.00,0.2171
9783.00,0.2169
9782.00,0.2169
9781.00,0.2171
9780.00,0.2172
9779.00,0.2174
9778.00,0.2175
9777.00,0.2175
9776.00,0.2175
9775.00,0.2175
9774.00,0.2176
9773.00,0.2176
9772.00,0.2177
9771.00,0.2176
9770.00,0.2175
9769.00,0.2173
9768.00,0.2171
9767.00,0.2170
9766.00,0.2170
9765.00,0.2170
9764.00,0.2169
9763.00,0.2169
9762.00,0.2170
9761.00,0.2171
9760.00,0.2171
9759.00,0.2172
9758.00,0.2171
9757.00,0.2170
9756.00,0.2170
9755.00,0.2171
9754.00,0.2172
9753.00,0.2174
9752.00,0.2174
9751.00,0.2173
9750.00,0.2172
9749.00,0.2172
9748.00,0.2172
9747.00,0.2174
9746.00,0.2175
9745.00,0.2176
9744.00,0.2174
9743.00,0.2173
9742.00,0.2171
9741.00,0.2171
9740.00,0.2172
9739.00,0.2173
9738.00,0.2174
9737.00,0.2174
9736.00,0.2173
9735.00,0.2171
9734.00,0.2171
9733.00,0.2171
9732.00,0.2171
9731.00,0.2170
9730.00,0.2168
9729.00,0.2166
9728.00,0.2166
9727.00,0.2168
9726.00,0.2170
9725.00,0.2170
9724.00,0.2170
9723.00,0.2169
9722.00,0.2169
9721.00,0.2170
9720.00,0.2171
9719.00,0.2172
9718.00,0.2172
9717.00,0.2170
9716.00,0.2168
9715.00,0.2167
9714.00,0.2167
9713.00,0.2167
9712.00,0.2167
9711.00,0.2166
9710.00,0.2165
9709.00,0.2164
9708.00,0.2164
9707.00,0.2164
9706.00,0.2165
9705.00,0.2165
9704.00,0.2165
9703.00,0.2164
9702.00,0.2164
9701.00,0.2164
9700.00,0.2165
9699.00,0.2165
9698.00,0.2165
9697.00,0.2165
9696.00,0.2164
9695.00,0.2163
9694.00,0.2163
9693.00,0.2163
9692.00,0.2164
9691.00,0.2165
9690.00,0.2166
9689.00,0.2166
9688.00,0.2167
9687.00,0.2167
9686.00,0.2167
9685.00,0.2167
9684.00,0.2168
9683.00,0.2168
9682.00,0.2167
9681.00,0.2166
9680.00,0.2164
9679.00,0.2164
9678.00,0.2163
9677.00,0.2164
9676.00,0.2165
9675.00,0.2165
9674.00,0.2166
9673.00,0.2166
9672.00,0.2166
9671.00,0.2167
9670.00,0.2167
9669.00,0.2166
9668.00,0.2166
9667.00,0.2165
9666.00,0.2164
9665.00,0.2163
9664.00,0.2163
9663.00,0.2162
9662.00,0.2162
9661.00,0.2162
9660.00,0.2162
9659.00,0.2162
9658.00,0.2163
9657.00,0.2163
9656.00,0.2163
9655.00,0.2164
9654.00,0.2164
9653.00,0.2163
9652.00,0.2162
9651.00,0.2162
9650.00,0.2163
9649.00,0.2164
9648.00,0.2166
9647.00,0.2166
9646.00,0.2165
9645.00,0.2163
9644.00,0.2162
9643.00,0.2162
9642.00,0.2163
9641.00,0.2163
9640.00,0.2162
9639.00,0.2161
9638.00,0.2161
9637.00,0.2161
9636.00,0.2160
9635.00,0.2159
9634.00,0.2158
9633.00,0.2157
9632.00,0.2158
9631.00,0.2159
9630.00,0.2160
9629.00,0.2160
9628.00,0.2160
9627.00,0.2159
9626.00,0.2159
9625.00,0.2160
9624.00,0.2161
9623.00,0.2162
9622.00,0.2163
9621.00,0.2162
9620.00,0.2161
9619.00,0.2160
9618.00,0.2160
9617.00,0.2160
9616.00,0.2161
9615.00,0.2161
9614.00,0.2160
9613.00,0.2160
9612.00,0.2159
9611.00,0.2158
9610.00,0.2158
9609.00,0.2158
9608.00,0.2158
9607.00,0.2159
9606.00,0.2160
9605.00,0.2161
9604.00,0.2162
9603.00,0.2162
9602.00,0.2161
9601.00,0.2159
9600.00,0.2159
9599.00,0.2158
9598.00,0.2158
9597.00,0.2157
9596.00,0.2155
9595.00,0.2154
9594.00,0.2153
9593.00,0.2155
9592.00,0.2157
9591.00,0.2159
9590.00,0.2160
9589.00,0.2160
9588.00,0.2160
9587.00,0.2159
9586.00,0.2157
9585.00,0.2156
9584.00,0.2155
9583.00,0.2154
9582.00,0.2154
9581.00,0.2155
9580.00,0.2156
9579.00,0.2156
9578.00,0.2156
9577.00,0.2154
9576.00,0.2153
9575.00,0.2153
9574.00,0.2153
9573.00,0.2155
9572.00,0.2156
9571.00,0.2156
9570.00,0.2156
9569.00,0.2156
9568.00,0.2156
9567.00,0.2157
9566.00,0.2158
9565.00,0.2159
9564.00,0.2159
9563.00,0.2158
9562.00,0.2157
9561.00,0.2155
9560.00,0.2154
9559.00,0.2153
9558.00,0.2151
9557.00,0.2151
9556.00,0.2151
9555.00,0.2153
9554.00,0.2154
9553.00,0.2154
9552.00,0.2154
9551.00,0.2153
9550.00,0.2152
9549.00,0.2153
9548.00,0.2155
9547.00,0.2156
9546.00,0.2156
9545.00,0.2155
9544.00,0.2153
9543.00,0.2152
9542.00,0.2153
9541.00,0.2153
9540.00,0.2154
9539.00,0.2154
9538.00,0.2154
9537.00,0.2154
9536.00,0.2155
9535.00,0.2156
9534.00,0.2156
9533.00,0.2155
9532.00,0.2154
9531.00,0.2153
9530.00,0.2153
9529.00,0.2153
9528.00,0.2152
9527.00,0.2151
9526.00,0.2150
9525.00,0.2149
9524.00,0.2149
9523.00,0.2149
9522.00,0.2148
9521.00,0.2148
9520.00,0.2148
9519.00,0.2148
9518.00,0.2150
9517.00,0.2151
9516.00,0.2152
9515.00,0.2152
9514.00,0.2152
9513.00,0.2151
9512.00,0.2151
9511.00,0.2152
9510.00,0.2152
9509.00,0.2151
9508.00,0.2151
9507.00,0.2150
9506.00,0.2149
9505.00,0.2149
9504.00,0.2150
9503.00,0.2152
9502.00,0.2152
9501.00,0.2151
9500.00,0.2150
9499.00,0.2149
9498.00,0.2148
9497.00,0.2149
9496.00,0.2149
9495.00,0.2148
9494.00,0.2147
9493.00,0.2146
9492.00,0.2146
9491.00,0.2146
9490.00,0.2146
9489.00,0.2146
9488.00,0.2146
9487.00,0.2145
9486.00,0.2145
9485.00,0.2145
9484.00,0.2146
9483.00,0.2146
9482.00,0.2147
9481.00,0.2146
9480.00,0.2146
9479.00,0.2146
9478.00,0.2147
9477.00,0.2148
9476.00,0.2148
9475.00,0.2147
9474.00,0.2145
9473.00,0.2144
9472.00,0.2144
9471.00,0.2145
9470.00,0.2145
9469.00,0.2145
9468.00,0.2145
9467.00,0.2144
9466.00,0.2145
9465.00,0.2146
9464.00,0.2147
9463.00,0.2147
9462.00,0.2147
9461.00,0.2147
9460.00,0.2147
9459.00,0.2147
9458.00,0.2147
9457.00,0.2145
9456.00,0.2144
9455.00,0.2143
9454.00,0.2142
9453.00,0.2142
9452.00,0.2142
9451.00,0.2142
9450.00,0.2142
9449.00,0.2142
9448.00,0.2141
9447.00,0.2141
9446.00,0.2141
9445.00,0.2141
9444.00,0.2142
9443.00,0.2142
9442.00,0.2142
9441.00,0.2141
9440.00,0.2140
9439.00,0.2141
9438.00,0.2142
9437.00,0.2142
9436.00,0.2141
9435.00,0.2140
9434.00,0.2139
9433.00,0.2138
9432.00,0.2137
9431.00,0.2137
9430.00,0.2137
9429.00,0.2137
9428.00,0.2138
9427.00,0.2138
9426.00,0.2139
9425.00,0.2140
9424.00,0.2140
9423.00,0.2140
9422.00,0.2139
9421.00,0.2138
9420.00,0.2138
9419.00,0.2139
9418.00,0.2140
9417.00,0.2141
9416.00,0.2141
9415.00,0.2141
9414.00,0.2141
9413.00,0.2142
9412.00,0.2144
9411.00,0.2146
9410.00,0.2146
9409.00,0.2144
9408.00,0.2141
9407.00,0.2138
9406.00,0.2135
9405.00,0.2133
9404.00,0.2132
9403.00,0.2132
9402.00,0.2131
9401.00,0.2131
9400.00,0.2131
9399.00,0.2132
9398.00,0.2134
9397.00,0.2136
9396.00,0.2138
9395.00,0.2138
9394.00,0.2138
9393.00,0.2138
9392.00,0.2138
9391.00,0.2138
9390.00,0.2139
9389.00,0.2139
9388.00,0.2139
9387.00,0.2140
9386.00,0.2141
9385.00,0.2142
9384.00,0.2144
9383.00,0.2144
9382.00,0.2145
9381.00,0.2144
9380.00,0.2143
9379.00,0.2142
9378.00,0.2141
9377.00,0.2140
9376.00,0.2139
9375.00,0.2138
9374.00,0.2137
9373.00,0.2135
9372.00,0.2134
9371.00,0.2134
9370.00,0.2135
9369.00,0.2137
9368.00,0.2139
9367.00,0.2141
9366.00,0.2141
9365.00,0.2141
9364.00,0.2142
9363.00,0.2143
9362.00,0.2143
9361.00,0.2143
9360.00,0.2142
9359.00,0.2140
9358.00,0.2139
9357.00,0.2138
9356.00,0.2137
9355.00,0.2137
9354.00,0.2138
9353.00,0.2138
9352.00,0.2139
9351.00,0.2139
9350.00,0.2138
9349.00,0.2137
9348.00,0.2137
9347.00,0.2137
9346.00,0.2137
9345.00,0.2136
9344.00,0.2136
9343.00,0.2135
9342.00,0.2136
9341.00,0.2137
9340.00,0.2138
9339.00,0.2139
9338.00,0.2139
9337.00,0.2138
9336.00,0.2137
9335.00,0.2136
9334.00,0.2135
9333.00,0.2134
9332.00,0.2134
9331.00,0.2134
9330.00,0.2133
9329.00,0.2132
9328.00,0.2131
9327.00,0.2131
9326.00,0.2132
9325.00,0.2133
9324.00,0.2134
9323.00,0.2134
9322.00,0.2133
9321.00,0.2131
9320.00,0.2130
9319.00,0.2130
9318.00,0.2130
9317.00,0.2131
9316.00,0.2132
9315.00,0.2133
9314.00,0.2133
9313.00,0.2134
9312.00,0.2135
9311.00,0.2137
9310.00,0.2138
9309.00,0.2139
9308.00,0.2139
9307.00,0.2138
9306.00,0.2137
9305.00,0.2136
9304.00,0.2135
9303.00,0.2135
9302.00,0.2134
9301.00,0.2134
9300.00,0.2133
9299.00,0.2132
9298.00,0.2131
9297.00,0.2131
9296.00,0.2131
9295.00,0.2132
9294.00,0.2133
9293.00,0.2133
9292.00,0.2132
9291.00,0.2131
9290.00,0.2131
9289.00,0.2131
9288.00,0.2132
9287.00,0.2131
9286.00,0.2130
9285.00,0.2128
9284.00,0.2128
9283.00,0.2129
9282.00,0.2130
9281.00,0.2131
9280.00,0.2131
9279.00,0.2130
9278.00,0.2130
9277.00,0.2130
9276.00,0.2131
9275.00,0.2132
9274.00,0.2132
9273.00,0.2132
9272.00,0.2131
9271.00,0.2130
9270.00,0.2129
9269.00,0.2130
9268.00,0.2131
9267.00,0.2132
9266.00,0.2132
9265.00,0.2131
9264.00,0.2130
9263.00,0.2129
9262.00,0.2129
9261.00,0.2129
9260.00,0.2128
9259.00,0.2127
9258.00,0.2125
9257.00,0.2124
9256.00,0.2125
9255.00,0.2126
9254.00,0.2127
9253.00,0.2128
9252.00,0.2128
9251.00,0.2127
9250.00,0.2127
9249.00,0.2128
9248.00,0.2129
9247.00,0.2129
9246.00,0.2130
9245.00,0.2129
9244.00,0.2128
9243.00,0.2127
9242.00,0.2126
9241.00,0.2126
9240.00,0.2128
9239.00,0.2129
9238.00,0.2130
9237.00,0.2130
9236.00,0.2129
9235.00,0.2127
9234.00,0.2125
9233.00,0.2125
9232.00,0.2126
9231.00,0.2127
9230.00,0.2128
9229.00,0.2128
9228.00,0.2127
9227.00,0.2126
9226.00,0.2125
9225.00,0.2126
9224.00,0.2127
9223.00,0.2127
9222.00,0.2127
9221.00,0.2126
9220.00,0.2124
9219.00,0.2124
9218.00,0.2124
9217.00,0.2125
9216.00,0.2126
9215.00,0.2127
9214.00,0.2127
9213.00,0.2128
9212.00,0.2128
9211.00,0.2128
9210.00,0.2128
9209.00,0.2127
9208.00,0.2126
9207.00,0.2126
9206.00,0.2125
9205.00,0.2125
9204.00,0.2124
9203.00,0.2124
9202.00,0.2123
9201.00,0.2123
9200.00,0.2123
9199.00,0.2124
9198.00,0.2124
9197.00,0.2125
9196.00,0.2125
9195.00,0.2125
9194.00,0.2124
9193.00,0.2125
9192.00,0.2125
9191.00,0.2126
9190.00,0.2126
9189.00,0.2126
9188.00,0.2125
9187.00,0.2123
9186.00,0.2123
9185.00,0.2122
9184.00,0.2122
9183.00,0.2123
9182.00,0.2122
9181.00,0.2121
9180.00,0.2121
9179.00,0.2121
9178.00,0.2121
9177.00,0.2122
9176.00,0.2122
9175.00,0.2123
9174.00,0.2123
9173.00,0.2123
9172.00,0.2123
9171.00,0.2123
9170.00,0.2122
9169.00,0.2121
9168.00,0.2121
9167.00,0.2122
9166.00,0.2122
9165.00,0.2122
9164.00,0.2121
9163.00,0.2121
9162.00,0.2120
9161.00,0.2119
9160.00,0.2119
9159.00,0.2120
9158.00,0.2121
9157.00,0.2123
9156.00,0.2123
9155.00,0.2123
9154.00,0.2123
9153.00,0.2122
9152.00,0.2123
9151.00,0.2124
9150.00,0.2124
9149.00,0.2123
9148.00,0.2121
9147.00,0.2120
9146.00,0.2119
9145.00,0.2119
9144.00,0.2120
9143.00,0.2121
9142.00,0.2121
9141.00,0.2120
9140.00,0.2120
9139.00,0.2121
9138.00,0.2121
9137.00,0.2122
9136.00,0.2121
9135.00,0.2120
9134.00,0.2120
9133.00,0.2120
9132.00,0.2120
9131.00,0.2121
9130.00,0.2121
9129.00,0.2120
9128.00,0.2120
9127.00,0.2119
9126.00,0.2120
9125.00,0.2120
9124.00,0.2121
9123.00,0.2121
9122.00,0.2121
9121.00,0.2120
9120.00,0.2120
9119.00,0.2120
9118.00,0.2120
9117.00,0.2121
9116.00,0.2121
9115.00,0.2120
9114.00,0.2119
9113.00,0.2119
9112.00,0.2119
9111.00,0.2120
9110.00,0.2119
9109.00,0.2119
9108.00,0.2118
9107.00,0.2119
9106.00,0.2119
9105.00,0.2119
9104.00,0.2118
9103.00,0.2117
9102.00,0.2117
9101.00,0.2118
9100.00,0.2119
9099.00,0.2118
9098.00,0.2118
9097.00,0.2117
9096.00,0.2116
9095.00,0.2117
9094.00,0.2118
9093.00,0.2118
9092.00,0.2118
9091.00,0.2117
9090.00,0.2116
9089.00,0.2115
9088.00,0.2114
9087.00,0.2114
9086.00,0.2114
9085.00,0.2114
9084.00,0.2114
9083.00,0.2113
9082.00,0.2113
9081.00,0.2113
9080.00,0.2114
9079.00,0.2115
9078.00,0.2116
9077.00,0.2117
9076.00,0.2117
9075.00,0.2115
9074.00,0.2114
9073.00,0.2114
9072.00,0.2113
9071.00,0.2113
9070.00,0.2112
9069.00,0.2112
9068.00,0.2112
9067.00,0.2112
9066.00,0.2112
9065.00,0.2112
9064.00,0.2113
9063.00,0.2114
9062.00,0.2115
9061.00,0.2116
9060.00,0.2116
9059.00,0.2116
9058.00,0.2116
9057.00,0.2116
9056.00,0.2116
9055.00,0.2116
9054.00,0.2116
9053.00,0.2117
9052.00,0.2117
9051.00,0.2117
9050.00,0.2117
9049.00,0.2117
9048.00,0.2116
9047.00,0.2116
9046.00,0.2116
9045.00,0.2116
9044.00,0.2115
9043.00,0.2113
9042.00,0.2112
9041.00,0.2111
9040.00,0.2110
9039.00,0.2110
9038.00,0.2110
9037.00,0.2109
9036.00,0.2109
9035.00,0.2109
9034.00,0.2109
9033.00,0.2109
9032.00,0.2110
9031.00,0.2112
9030.00,0.2113
9029.00,0.2114
9028.00,0.2113
9027.00,0.2113
9026.00,0.2113
9025.00,0.2114
9024.00,0.2114
9023.00,0.2112
9022.00,0.2111
9021.00,0.2110
9020.00,0.2109
9019.00,0.2109
9018.00,0.2110
9017.00,0.2110
9016.00,0.2111
9015.00,0.2111
9014.00,0.2112
9013.00,0.2112
9012.00,0.2111
9011.00,0.2109
9010.00,0.2108
9009.00,0.2107
9008.00,0.2106
9007.00,0.2105
9006.00,0.2104
9005.00,0.2104
9004.00,0.2105
9003.00,0.2106
9002.00,0.2108
9001.00,0.2110
9000.00,0.2111
8999.00,0.2111
8998.00,0.2111
8997.00,0.2111
8996.00,0.2110
8995.00,0.2110
8994.00,0.2109
8993.00,0.2109
8992.00,0.2109
8991.00,0.2110
8990.00,0.2112
8989.00,0.2114
8988.00,0.2115
8987.00,0.2115
8986.00,0.2115
8985.00,0.2115
8984.00,0.2115
8983.00,0.2114
8982.00,0.2113
8981.00,0.2111
8980.00,0.2109
8979.00,0.2108
8978.00,0.2107
8977.00,0.2108
8976.00,0.2108
8975.00,0.2108
8974.00,0.2109
8973.00,0.2109
8972.00,0.2109
8971.00,0.2110
8970.00,0.2110
8969.00,0.2110
8968.00,0.2110
8967.00,0.2110
8966.00,0.2109
8965.00,0.2109
8964.00,0.2109
8963.00,0.2109
8962.00,0.2109
8961.00,0.2110
8960.00,0.2110
8959.00,0.2109
8958.00,0.2110
8957.00,0.2110
8956.00,0.2112
8955.00,0.2113
8954.00,0.2114
8953.00,0.2113
8952.00,0.2111
8951.00,0.2110
8950.00,0.2109
8949.00,0.2109
8948.00,0.2109
8947.00,0.2108
8946.00,0.2107
8945.00,0.2106
8944.00,0.2107
8943.00,0.2108
8942.00,0.2109
8941.00,0.2110
8940.00,0.2110
8939.00,0.2110
8938.00,0.2110
8937.00,0.2111
8936.00,0.2112
8935.00,0.2113
8934.00,0.2113
8933.00,0.2113
8932.00,0.2112
8931.00,0.2112
8930.00,0.2112
8929.00,0.2113
8928.00,0.2113
8927.00,0.2113
8926.00,0.2112
8925.00,0.2111
8924.00,0.2111
8923.00,0.2112
8922.00,0.2113
8921.00,0.2113
8920.00,0.2112
8919.00,0.2111
8918.00,0.2110
8917.00,0.2110
8916.00,0.2109
8915.00,0.2109
8914.00,0.2109
8913.00,0.2109
8912.00,0.2109
8911.00,0.2109
8910.00,0.2109
8909.00,0.2110
8908.00,0.2111
8907.00,0.2112
8906.00,0.2113
8905.00,0.2113
8904.00,0.2113
8903.00,0.2113
8902.00,0.2113
8901.00,0.2112
8900.00,0.2111
8899.00,0.2110
8898.00,0.2109
8897.00,0.2108
8896.00,0.2108
8895.00,0.2107
8894.00,0.2107
8893.00,0.2107
8892.00,0.2108
8891.00,0.2111
8890.00,0.2113
8889.00,0.2114
8888.00,0.2114
8887.00,0.2114
8886.00,0.2114
8885.00,0.2114
8884.00,0.2115
8883.00,0.2115
8882.00,0.2114
8881.00,0.2113
8880.00,0.2112
8879.00,0.2112
8878.00,0.2113
8877.00,0.2114
8876.00,0.2114
8875.00,0.2114
8874.00,0.2113
8873.00,0.2112
8872.00,0.2112
8871.00,0.2112
8870.00,0.2112
8869.00,0.2111
8868.00,0.2111
8867.00,0.2111
8866.00,0.2112
8865.00,0.2113
8864.00,0.2113
8863.00,0.2113
8862.00,0.2113
8861.00,0.2113
8860.00,0.2113
8859.00,0.2113
8858.00,0.2113
8857.00,0.2112
8856.00,0.2112
8855.00,0.2113
8854.00,0.2113
8853.00,0.2114
8852.00,0.2115
8851.00,0.2116
8850.00,0.2116
8849.00,0.2116
8848.00,0.2116
8847.00,0.2116
8846.00,0.2116
8845.00,0.2115
8844.00,0.2114
8843.00,0.2113
8842.00,0.2113
8841.00,0.2114
8840.00,0.2115
8839.00,0.2115
8838.00,0.2116
8837.00,0.2117
8836.00,0.2118
8835.00,0.2118
8834.00,0.2118
8833.00,0.2118
8832.00,0.2118
8831.00,0.2118
8830.00,0.2118
8829.00,0.2118
8828.00,0.2118
8827.00,0.2118
8826.00,0.2119
8825.00,0.2121
8824.00,0.2122
8823.00,0.2122
8822.00,0.2122
8821.00,0.2122
8820.00,0.2123
8819.00,0.2124
8818.00,0.2125
8817.00,0.2126
8816.00,0.2126
8815.00,0.2126
8814.00,0.2126
8813.00,0.2126
8812.00,0.2126
8811.00,0.2125
8810.00,0.2125
8809.00,0.2125
8808.00,0.2126
8807.00,0.2126
8806.00,0.2126
8805.00,0.2127
8804.00,0.2127
8803.00,0.2128
8802.00,0.2128
8801.00,0.2128
8800.00,0.2127
8799.00,0.2126
8798.00,0.2125
8797.00,0.2125
8796.00,0.2125
8795.00,0.2127
8794.00,0.2127
8793.00,0.2127
8792.00,0.2127
8791.00,0.2127
8790.00,0.2128
8789.00,0.2128
8788.00,0.2128
8787.00,0.2128
8786.00,0.2127
8785.00,0.2127
8784.00,0.2128
8783.00,0.2129
8782.00,0.2130
8781.00,0.2130
8780.00,0.2130
8779.00,0.2130
8778.00,0.2131
8777.00,0.2132
8776.00,0.2133
8775.00,0.2133
8774.00,0.2134
8773.00,0.2134
8772.00,0.2135
8771.00,0.2135
8770.00,0.2136
8769.00,0.2138
8768.00,0.2139
8767.00,0.2140
8766.00,0.2140
8765.00,0.2140
8764.00,0.2140
8763.00,0.2139
8762.00,0.2139
8761.00,0.2138
8760.00,0.2138
8759.00,0.2137
8758.00,0.2137
8757.00,0.2137
8756.00,0.2138
8755.00,0.2139
8754.00,0.2141
8753.00,0.2142
8752.00,0.2142
8751.00,0.2142
8750.00,0.2142
8749.00,0.2142
8748.00,0.2143
8747.00,0.2144
8746.00,0.2144
8745.00,0.2145
8744.00,0.2147
8743.00,0.2148
8742.00,0.2149
8741.00,0.2150
8740.00,0.2149
8739.00,0.2149
8738.00,0.2149
8737.00,0.2149
8736.00,0.2148
8735.00,0.2148
8734.00,0.2148
8733.00,0.2148
8732.00,0.2149
8731.00,0.2150
8730.00,0.2152
8729.00,0.2153
8728.00,0.2154
8727.00,0.2154
8726.00,0.2155
8725.00,0.2156
8724.00,0.2157
8723.00,0.2157
8722.00,0.2158
8721.00,0.2158
8720.00,0.2158
8719.00,0.2158
8718.00,0.2157
8717.00,0.2157
8716.00,0.2157
8715.00,0.2158
8714.00,0.2159
8713.00,0.2160
8712.00,0.2159
8711.00,0.2159
8710.00,0.2159
8709.00,0.2161
8708.00,0.2163
8707.00,0.2164
8706.00,0.2164
8705.00,0.2164
8704.00,0.2164
8703.00,0.2166
8702.00,0.2168
8701.00,0.2169
8700.00,0.2169
8699.00,0.2168
8698.00,0.2168
8697.00,0.2168
8696.00,0.2168
8695.00,0.2169
8694.00,0.2169
8693.00,0.2169
8692.00,0.2169
8691.00,0.2169
8690.00,0.2170
8689.00,0.2170
8688.00,0.2171
8687.00,0.2171
8686.00,0.2171
8685.00,0.2172
8684.00,0.2173
8683.00,0.2173
8682.00,0.2175
8681.00,0.2176
8680.00,0.2177
8679.00,0.2178
8678.00,0.2179
8677.00,0.2180
8676.00,0.2181
8675.00,0.2182
8674.00,0.2183
8673.00,0.2183
8672.00,0.2184
8671.00,0.2184
8670.00,0.2184
8669.00,0.2184
8668.00,0.2185
8667.00,0.2185
8666.00,0.2185
8665.00,0.2186
8664.00,0.2187
8663.00,0.2187
8662.00,0.2188
8661.00,0.2190
8660.00,0.2191
8659.00,0.2192
8658.00,0.2193
8657.00,0.2193
8656.00,0.2194
8655.00,0.2194
8654.00,0.2195
8653.00,0.2194
8652.00,0.2194
8651.00,0.2193
8650.00,0.2193
8649.00,0.2194
8648.00,0.2194
8647.00,0.2194
8646.00,0.2194
8645.00,0.2195
8644.00,0.2196
8643.00,0.2197
8642.00,0.2199
8641.00,0.2200
8640.00,0.2201
8639.00,0.2202
8638.00,0.2203
8637.00,0.2204
8636.00,0.2205
8635.00,0.2207
8634.00,0.2208
8633.00,0.2209
8632.00,0.2210
8631.00,0.2211
8630.00,0.2211
8629.00,0.2212
8628.00,0.2212
8627.00,0.2213
8626.00,0.2213
8625.00,0.2214
8624.00,0.2214
8623.00,0.2215
8622.00,0.2215
8621.00,0.2215
8620.00,0.2216
8619.00,0.2216
8618.00,0.2216
8617.00,0.2216
8616.00,0.2216
8615.00,0.2216
8614.00,0.2216
8613.00,0.2216
8612.00,0.2217
8611.00,0.2218
8610.00,0.2219
8609.00,0.2219
8608.00,0.2220
8607.00,0.2221
8606.00,0.2222
8605.00,0.2223
8604.00,0.2224
8603.00,0.2224
8602.00,0.2224
8601.00,0.2224
8600.00,0.2225
8599.00,0.2227
8598.00,0.2228
8597.00,0.2230
8596.00,0.2231
8595.00,0.2232
8594.00,0.2233
8593.00,0.2233
8592.00,0.2233
8591.00,0.2233
8590.00,0.2232
8589.00,0.2231
8588.00,0.2230
8587.00,0.2230
8586.00,0.2230
8585.00,0.2230
8584.00,0.2232
8583.00,0.2234
8582.00,0.2236
8581.00,0.2237
8580.00,0.2238
8579.00,0.2238
8578.00,0.2238
8577.00,0.2239
8576.00,0.2240
8575.00,0.2241
8574.00,0.2242
8573.00,0.2242
8572.00,0.2243
8571.00,0.2244
8570.00,0.2245
8569.00,0.2246
8568.00,0.2246
8567.00,0.2246
8566.00,0.2246
8565.00,0.2247
8564.00,0.2247
8563.00,0.2247
8562.00,0.2247
8561.00,0.2247
8560.00,0.2249
8559.00,0.2251
8558.00,0.2252
8557.00,0.2252
8556.00,0.2252
8555.00,0.2252
8554.00,0.2252
8553.00,0.2253
8552.00,0.2253
8551.00,0.2253
8550.00,0.2253
8549.00,0.2253
8548.00,0.2254
8547.00,0.2255
8546.00,0.2257
8545.00,0.2258
8544.00,0.2259
8543.00,0.2259
8542.00,0.2259
8541.00,0.2260
8540.00,0.2261
8539.00,0.2261
8538.00,0.2261
8537.00,0.2260
8536.00,0.2260
8535.00,0.2261
8534.00,0.2262
8533.00,0.2263
8532.00,0.2264
8531.00,0.2264
8530.00,0.2264
8529.00,0.2264
8528.00,0.2265
8527.00,0.2266
8526.00,0.2266
8525.00,0.2267
8524.00,0.2268
8523.00,0.2268
8522.00,0.2269
8521.00,0.2270
8520.00,0.2271
8519.00,0.2271
8518.00,0.2271
8517.00,0.2271
8516.00,0.2271
8515.00,0.2271
8514.00,0.2271
8513.00,0.2271
8512.00,0.2271
8511.00,0.2272
8510.00,0.2273
8509.00,0.2274
8508.00,0.2274
8507.00,0.2275
8506.00,0.2276
8505.00,0.2278
8504.00,0.2279
8503.00,0.2280
8502.00,0.2279
8501.00,0.2279
8500.00,0.2279
8499.00,0.2279
8498.00,0.2279
8497.00,0.2279
8496.00,0.2279
8495.00,0.2279
8494.00,0.2279
8493.00,0.2279
8492.00,0.2280
8491.00,0.2282
8490.00,0.2283
8489.00,0.2284
8488.00,0.2285
8487.00,0.2286
8486.00,0.2286
8485.00,0.2287
8484.00,0.2287
8483.00,0.2288
8482.00,0.2290
8481.00,0.2290
8480.00,0.2291
8479.00,0.2291
8478.00,0.2291
8477.00,0.2292
8476.00,0.2293
8475.00,0.2294
8474.00,0.2295
8473.00,0.2295
8472.00,0.2295
8471.00,0.2296
8470.00,0.2297
8469.00,0.2297
8468.00,0.2297
8467.00,0.2296
8466.00,0.2295
8465.00,0.2294
8464.00,0.2294
8463.00,0.2294
8462.00,0.2294
8461.00,0.2295
8460.00,0.2296
8459.00,0.2297
8458.00,0.2298
8457.00,0.2299
8456.00,0.2300
8455.00,0.2301
8454.00,0.2301
8453.00,0.2301
8452.00,0.2301
8451.00,0.2300
8450.00,0.2300
8449.00,0.2301
8448.00,0.2303
8447.00,0.2304
8446.00,0.2306
8445.00,0.2307
8444.00,0.2308
8443.00,0.2308
8442.00,0.2308
8441.00,0.2309
8440.00,0.2309
8439.00,0.2310
8438.00,0.2310
8437.00,0.2310
8436.00,0.2310
8435.00,0.2310
8434.00,0.2310
8433.00,0.2310
8432.00,0.2310
8431.00,0.2310
8430.00,0.2310
8429.00,0.2310
8428.00,0.2310
8427.00,0.2310
8426.00,0.2311
8425.00,0.2313
8424.00,0.2314
8423.00,0.2316
8422.00,0.2316
8421.00,0.2316
8420.00,0.2316
8419.00,0.2316
8418.00,0.2316
8417.00,0.2317
8416.00,0.2316
8415.00,0.2316
8414.00,0.2316
8413.00,0.2317
8412.00,0.2318
8411.00,0.2319
8410.00,0.2319
8409.00,0.2319
8408.00,0.2319
8407.00,0.2319
8406.00,0.2319
8405.00,0.2320
8404.00,0.2320
8403.00,0.2320
8402.00,0.2321
8401.00,0.2321
8400.00,0.2321
8399.00,0.2321
8398.00,0.2322
8397.00,0.2322
8396.00,0.2323
8395.00,0.2324
8394.00,0.2324
8393.00,0.2324
8392.00,0.2324
8391.00,0.2324
8390.00,0.2324
8389.00,0.2324
8388.00,0.2323
8387.00,0.2323
8386.00,0.2323
8385.00,0.2323
8384.00,0.2322
8383.00,0.2322
8382.00,0.2322
8381.00,0.2323
8380.00,0.2323
8379.00,0.2323
8378.00,0.2323
8377.00,0.2324
8376.00,0.2324
8375.00,0.2325
8374.00,0.2326
8373.00,0.2326
8372.00,0.2325
8371.00,0.2325
8370.00,0.2324
8369.00,0.2324
8368.00,0.2323
8367.00,0.2322
8366.00,0.2321
8365.00,0.2321
8364.00,0.2322
8363.00,0.2323
8362.00,0.2324
8361.00,0.2324
8360.00,0.2325
8359.00,0.2325
8358.00,0.2325
8357.00,0.2325
8356.00,0.2325
8355.00,0.2325
8354.00,0.2326
8353.00,0.2327
8352.00,0.2327
8351.00,0.2328
8350.00,0.2329
8349.00,0.2330
8348.00,0.2331
8347.00,0.2331
8346.00,0.2331
8345.00,0.2331
8344.00,0.2330
8343.00,0.2330
8342.00,0.2329
8341.00,0.2329
8340.00,0.2328
8339.00,0.2328
8338.00,0.2328
8337.00,0.2328
8336.00,0.2328
8335.00,0.2329
8334.00,0.2329
8333.00,0.2330
8332.00,0.2330
8331.00,0.2330
8330.00,0.2330
8329.00,0.2331
8328.00,0.2331
8327.00,0.2330
8326.00,0.2329
8325.00,0.2329
8324.00,0.2329
8323.00,0.2328
8322.00,0.2328
8321.00,0.2328
8320.00,0.2328
8319.00,0.2328
8318.00,0.2328
8317.00,0.2329
8316.00,0.2329
8315.00,0.2329
8314.00,0.2329
8313.00,0.2330
8312.00,0.2330
8311.00,0.2331
8310.00,0.2331
8309.00,0.2330
8308.00,0.2329
8307.00,0.2329
8306.00,0.2329
8305.00,0.2329
8304.00,0.2329
8303.00,0.2329
8302.00,0.2329
8301.00,0.2329
8300.00,0.2329
8299.00,0.2329
8298.00,0.2329
8297.00,0.2330
8296.00,0.2330
8295.00,0.2329
8294.00,0.2329
8293.00,0.2328
8292.00,0.2327
8291.00,0.2327
8290.00,0.2326
8289.00,0.2326
8288.00,0.2326
8287.00,0.2325
8286.00,0.2324
8285.00,0.2325
8284.00,0.2325
8283.00,0.2326
8282.00,0.2326
8281.00,0.2325
8280.00,0.2325
8279.00,0.2325
8278.00,0.2326
8277.00,0.2326
8276.00,0.2326
8275.00,0.2325
8274.00,0.2325
8273.00,0.2325
8272.00,0.2325
8271.00,0.2325
8270.00,0.2325
8269.00,0.2324
8268.00,0.2323
8267.00,0.2323
8266.00,0.2323
8265.00,0.2324
8264.00,0.2324
8263.00,0.2324
8262.00,0.2324
8261.00,0.2324
8260.00,0.2324
8259.00,0.2324
8258.00,0.2323
8257.00,0.2322
8256.00,0.2321
8255.00,0.2321
8254.00,0.2321
8253.00,0.2321
8252.00,0.2321
8251.00,0.2321
8250.00,0.2320
8249.00,0.2320
8248.00,0.2320
8247.00,0.2320
8246.00,0.2320
8245.00,0.2319
8244.00,0.2319
8243.00,0.2318
8242.00,0.2317
8241.00,0.2317
8240.00,0.2317
8239.00,0.2317
8238.00,0.2316
8237.00,0.2316
8236.00,0.2317
8235.00,0.2317
8234.00,0.2317
8233.00,0.2317
8232.00,0.2317
8231.00,0.2317
8230.00,0.2317
8229.00,0.2316
8228.00,0.2316
8227.00,0.2315
8226.00,0.2314
8225.00,0.2315
8224.00,0.2315
8223.00,0.2315
8222.00,0.2315
8221.00,0.2314
8220.00,0.2314
8219.00,0.2313
8218.00,0.2313
8217.00,0.2312
8216.00,0.2312
8215.00,0.2312
8214.00,0.2312
8213.00,0.2312
8212.00,0.2311
8211.00,0.2310
8210.00,0.2309
8209.00,0.2309
8208.00,0.2308
8207.00,0.2308
8206.00,0.2308
8205.00,0.2307
8204.00,0.2308
8203.00,0.2309
8202.00,0.2310
8201.00,0.2310
8200.00,0.2310
8199.00,0.2309
8198.00,0.2308
8197.00,0.2307
8196.00,0.2306
8195.00,0.2306
8194.00,0.2306
8193.00,0.2305
8192.00,0.2305
8191.00,0.2305
8190.00,0.2305
8189.00,0.2305
8188.00,0.2305
8187.00,0.2305
8186.00,0.2305
8185.00,0.2304
8184.00,0.2303
8183.00,0.2303
8182.00,0.2303
8181.00,0.2303
8180.00,0.2303
8179.00,0.2303
8178.00,0.2302
8177.00,0.2301
8176.00,0.2301
8175.00,0.2300
8174.00,0.2300
8173.00,0.2299
8172.00,0.2299
8171.00,0.2299
8170.00,0.2299
8169.00,0.2299
8168.00,0.2299
8167.00,0.2298
8166.00,0.2297
8165.00,0.2296
8164.00,0.2295
8163.00,0.2294
8162.00,0.2294
8161.00,0.2293
8160.00,0.2293
8159.00,0.2293
8158.00,0.2293
8157.00,0.2292
8156.00,0.2292
8155.00,0.2292
8154.00,0.2292
8153.00,0.2292
8152.00,0.2292
8151.00,0.2292
8150.00,0.2291
8149.00,0.2291
8148.00,0.2291
8147.00,0.2291
8146.00,0.2291
8145.00,0.2290
8144.00,0.2290
8143.00,0.2289
8142.00,0.2289
8141.00,0.2289
8140.00,0.2289
8139.00,0.2288
8138.00,0.2288
8137.00,0.2288
8136.00,0.2288
8135.00,0.2287
8134.00,0.2287
8133.00,0.2286
8132.00,0.2286
8131.00,0.2286
8130.00,0.2286
8129.00,0.2286
8128.00,0.2286
8127.00,0.2286
8126.00,0.2285
8125.00,0.2285
8124.00,0.2285
8123.00,0.2285
8122.00,0.2285
8121.00,0.2285
8120.00,0.2284
8119.00,0.2283
8118.00,0.2282
8117.00,0.2281
8116.00,0.2281
8115.00,0.2281
8114.00,0.2280
8113.00,0.2279
8112.00,0.2279
8111.00,0.2278
8110.00,0.2279
8109.00,0.2278
8108.00,0.2278
8107.00,0.2277
8106.00,0.2277
8105.00,0.2277
8104.00,0.2276
8103.00,0.2276
8102.00,0.2275
8101.00,0.2275
8100.00,0.2275
8099.00,0.2275
8098.00,0.2274
8097.00,0.2274
8096.00,0.2273
8095.00,0.2273
8094.00,0.2273
8093.00,0.2273
8092.00,0.2273
8091.00,0.2273
8090.00,0.2273
8089.00,0.2272
8088.00,0.2272
8087.00,0.2271
8086.00,0.2270
8085.00,0.2270
8084.00,0.2269
8083.00,0.2268
8082.00,0.2268
8081.00,0.2267
8080.00,0.2267
8079.00,0.2267
8078.00,0.2268
8077.00,0.2267
8076.00,0.2267
8075.00,0.2266
8074.00,0.2266
8073.00,0.2265
8072.00,0.2265
8071.00,0.2264
8070.00,0.2264
8069.00,0.2263
8068.00,0.2262
8067.00,0.2262
8066.00,0.2261
8065.00,0.2261
8064.00,0.2261
8063.00,0.2261
8062.00,0.2261
8061.00,0.2261
8060.00,0.2262
8059.00,0.2262
8058.00,0.2263
8057.00,0.2263
8056.00,0.2262
8055.00,0.2262
8054.00,0.2261
8053.00,0.2260
8052.00,0.2260
8051.00,0.2259
8050.00,0.2259
8049.00,0.2259
8048.00,0.2259
8047.00,0.2258
8046.00,0.2257
8045.00,0.2257
8044.00,0.2257
8043.00,0.2256
8042.00,0.2255
8041.00,0.2255
8040.00,0.2255
8039.00,0.2255
8038.00,0.2255
8037.00,0.2256
8036.00,0.2256
8035.00,0.2255
8034.00,0.2255
8033.00,0.2255
8032.00,0.2255
8031.00,0.2254
8030.00,0.2254
8029.00,0.2253
8028.00,0.2253
8027.00,0.2253
8026.00,0.2252
8025.00,0.2251
8024.00,0.2251
8023.00,0.2251
8022.00,0.2251
8021.00,0.2251
8020.00,0.2250
8019.00,0.2249
8018.00,0.2249
8017.00,0.2249
8016.00,0.2249
8015.00,0.2249
8014.00,0.2248
8013.00,0.2248
8012.00,0.2247
8011.00,0.2247
8010.00,0.2246
8009.00,0.2246
8008.00,0.2246
8007.00,0.2246
8006.00,0.2246
8005.00,0.2246
8004.00,0.2246
8003.00,0.2246
8002.00,0.2246
8001.00,0.2246
8000.00,0.2246
7999.00,0.2246
7998.00,0.2245
7997.00,0.2245
7996.00,0.2245
7995.00,0.2245
7994.00,0.2245
7993.00,0.2244
7992.00,0.2243
7991.00,0.2242
7990.00,0.2241
7989.00,0.2241
7988.00,0.2240
7987.00,0.2240
7986.00,0.2240
7985.00,0.2240
7984.00,0.2240
7983.00,0.2239
7982.00,0.2239
7981.00,0.2239
7980.00,0.2239
7979.00,0.2238
7978.00,0.2238
7977.00,0.2238
7976.00,0.2239
7975.00,0.2239
7974.00,0.2239
7973.00,0.2238
7972.00,0.2238
7971.00,0.2238
7970.00,0.2238
7969.00,0.2237
7968.00,0.2236
7967.00,0.2235
7966.00,0.2235
7965.00,0.2235
7964.00,0.2235
7963.00,0.2235
7962.00,0.2234
7961.00,0.2234
7960.00,0.2234
7959.00,0.2234
7958.00,0.2234
7957.00,0.2234
7956.00,0.2234
7955.00,0.2233
7954.00,0.2233
7953.00,0.2233
7952.00,0.2233
7951.00,0.2233
7950.00,0.2233
7949.00,0.2233
7948.00,0.2233
7947.00,0.2232
7946.00,0.2231
7945.00,0.2230
7944.00,0.2229
7943.00,0.2228
7942.00,0.2227
7941.00,0.2227
7940.00,0.2227
7939.00,0.2228
7938.00,0.2229
7937.00,0.2229
7936.00,0.2230
7935.00,0.2230
7934.00,0.2230
7933.00,0.2230
7932.00,0.2229
7931.00,0.2229
7930.00,0.2228
7929.00,0.2227
7928.00,0.2226
7927.00,0.2226
7926.00,0.2226
7925.00,0.2226
7924.00,0.2226
7923.00,0.2226
7922.00,0.2225
7921.00,0.2224
7920.00,0.2224
7919.00,0.2223
7918.00,0.2223
7917.00,0.2223
7916.00,0.2222
7915.00,0.2221
7914.00,0.2221
7913.00,0.2221
7912.00,0.2222
7911.00,0.2222
7910.00,0.2222
7909.00,0.2223
7908.00,0.2223
7907.00,0.2223
7906.00,0.2222
7905.00,0.2222
7904.00,0.2222
7903.00,0.2222
7902.00,0.2222
7901.00,0.2222
7900.00,0.2221
7899.00,0.2221
7898.00,0.2221
7897.00,0.2222
7896.00,0.2222
7895.00,0.2222
7894.00,0.2221
7893.00,0.2221
7892.00,0.2220
7891.00,0.2220
7890.00,0.2219
7889.00,0.2219
7888.00,0.2219
7887.00,0.2219
7886.00,0.2218
7885.00,0.2218
7884.00,0.2218
7883.00,0.2217
7882.00,0.2217
7881.00,0.2217
7880.00,0.2217
7879.00,0.2216
7878.00,0.2216
7877.00,0.2216
7876.00,0.2216
7875.00,0.2215
7874.00,0.2215
7873.00,0.2214
7872.00,0.2213
7871.00,0.2213
7870.00,0.2213
7869.00,0.2212
7868.00,0.2212
7867.00,0.2212
7866.00,0.2211
7865.00,0.2212
7864.00,0.2212
7863.00,0.2212
7862.00,0.2213
7861.00,0.2212
7860.00,0.2212
7859.00,0.2211
7858.00,0.2211
7857.00,0.2211
7856.00,0.2211
7855.00,0.2211
7854.00,0.2210
7853.00,0.2210
7852.00,0.2209
7851.00,0.2209
7850.00,0.2209
7849.00,0.2209
7848.00,0.2209
7847.00,0.2209
7846.00,0.2209
7845.00,0.2209
7844.00,0.2209
7843.00,0.2209
7842.00,0.2209
7841.00,0.2209
7840.00,0.2209
7839.00,0.2208
7838.00,0.2207
7837.00,0.2206
7836.00,0.2206
7835.00,0.2207
7834.00,0.2207
7833.00,0.2207
7832.00,0.2206
7831.00,0.2205
7830.00,0.2205
7829.00,0.2204
7828.00,0.2203
7827.00,0.2202
7826.00,0.2202
7825.00,0.2201
7824.00,0.2201
7823.00,0.2202
7822.00,0.2202
7821.00,0.2202
7820.00,0.2202
7819.00,0.2202
7818.00,0.2201
7817.00,0.2201
7816.00,0.2201
7815.00,0.2201
7814.00,0.2200
7813.00,0.2200
7812.00,0.2199
7811.00,0.2199
7810.00,0.2199
7809.00,0.2198
7808.00,0.2198
7807.00,0.2197
7806.00,0.2196
7805.00,0.2196
7804.00,0.2196
7803.00,0.2195
7802.00,0.2195
7801.00,0.2195
7800.00,0.2195
7799.00,0.2194
7798.00,0.2194
7797.00,0.2194
7796.00,0.2194
7795.00,0.2194
7794.00,0.2194
7793.00,0.2194
7792.00,0.2193
7791.00,0.2192
7790.00,0.2192
7789.00,0.2192
7788.00,0.2192
7787.00,0.2192
7786.00,0.2192
7785.00,0.2192
7784.00,0.2191
7783.00,0.2191
7782.00,0.2191
7781.00,0.2191
7780.00,0.2191
7779.00,0.2190
7778.00,0.2190
7777.00,0.2189
7776.00,0.2188
7775.00,0.2188
7774.00,0.2188
7773.00,0.2187
7772.00,0.2187
7771.00,0.2187
7770.00,0.2186
7769.00,0.2186
7768.00,0.2185
7767.00,0.2185
7766.00,0.2185
7765.00,0.2185
7764.00,0.2184
7763.00,0.2184
7762.00,0.2183
7761.00,0.2183
7760.00,0.2183
7759.00,0.2182
7758.00,0.2182
7757.00,0.2182
7756.00,0.2182
7755.00,0.2182
7754.00,0.2182
7753.00,0.2182
7752.00,0.2182
7751.00,0.2182
7750.00,0.2182
7749.00,0.2181
7748.00,0.2181
7747.00,0.2180
7746.00,0.2180
7745.00,0.2179
7744.00,0.2178
7743.00,0.2177
7742.00,0.2177
7741.00,0.2177
7740.00,0.2177
7739.00,0.2177
7738.00,0.2177
7737.00,0.2177
7736.00,0.2177
7735.00,0.2177
7734.00,0.2176
7733.00,0.2176
7732.00,0.2176
7731.00,0.2175
7730.00,0.2175
7729.00,0.2175
7728.00,0.2174
7727.00,0.2174
7726.00,0.2174
7725.00,0.2174
7724.00,0.2173
7723.00,0.2173
7722.00,0.2173
7721.00,0.2173
7720.00,0.2172
7719.00,0.2172
7718.00,0.2171
7717.00,0.2171
7716.00,0.2171
7715.00,0.2171
7714.00,0.2172
7713.00,0.2172
7712.00,0.2172
7711.00,0.2172
7710.00,0.2172
7709.00,0.2172
7708.00,0.2172
7707.00,0.2171
7706.00,0.2170
7705.00,0.2169
7704.00,0.2168
7703.00,0.2167
7702.00,0.2167
7701.00,0.2166
7700.00,0.2166
7699.00,0.2166
7698.00,0.2166
7697.00,0.2167
7696.00,0.2167
7695.00,0.2167
7694.00,0.2167
7693.00,0.2167
7692.00,0.2167
7691.00,0.2166
7690.00,0.2166
7689.00,0.2165
7688.00,0.2165
7687.00,0.2165
7686.00,0.2165
7685.00,0.2164
7684.00,0.2164
7683.00,0.2165
7682.00,0.2165
7681.00,0.2165
7680.00,0.2165
7679.00,0.2165
7678.00,0.2165
7677.00,0.2165
7676.00,0.2165
7675.00,0.2164
7674.00,0.2164
7673.00,0.2163
7672.00,0.2163
7671.00,0.2163
7670.00,0.2163
7669.00,0.2162
7668.00,0.2162
7667.00,0.2162
7666.00,0.2162
7665.00,0.2163
7664.00,0.2163
7663.00,0.2163
7662.00,0.2163
7661.00,0.2163
7660.00,0.2162
7659.00,0.2162
7658.00,0.2162
7657.00,0.2162
7656.00,0.2162
7655.00,0.2162
7654.00,0.2162
7653.00,0.2162
7652.00,0.2162
7651.00,0.2163
7650.00,0.2162
7649.00,0.2161
7648.00,0.2161
7647.00,0.2160
7646.00,0.2160
7645.00,0.2160
7644.00,0.2159
7643.00,0.2158
7642.00,0.2158
7641.00,0.2158
7640.00,0.2159
7639.00,0.2159
7638.00,0.2159
7637.00,0.2159
7636.00,0.2160
7635.00,0.2161
7634.00,0.2161
7633.00,0.2161
7632.00,0.2160
7631.00,0.2159
7630.00,0.2159
7629.00,0.2159
7628.00,0.2159
7627.00,0.2159
7626.00,0.2159
7625.00,0.2158
7624.00,0.2158
7623.00,0.2159
7622.00,0.2159
7621.00,0.2159
7620.00,0.2159
7619.00,0.2160
7618.00,0.2160
7617.00,0.2160
7616.00,0.2160
7615.00,0.2159
7614.00,0.2159
7613.00,0.2159
7612.00,0.2159
7611.00,0.2160
7610.00,0.2160
7609.00,0.2161
7608.00,0.2161
7607.00,0.2161
7606.00,0.2162
7605.00,0.2162
7604.00,0.2162
7603.00,0.2161
7602.00,0.2161
7601.00,0.2161
7600.00,0.2162
7599.00,0.2162
7598.00,0.2162
7597.00,0.2163
7596.00,0.2163
7595.00,0.2163
7594.00,0.2164
7593.00,0.2163
7592.00,0.2163
7591.00,0.2162
7590.00,0.2161
7589.00,0.2161
7588.00,0.2162
7587.00,0.2163
7586.00,0.2163
7585.00,0.2163
7584.00,0.2163
7583.00,0.2163
7582.00,0.2164
7581.00,0.2164
7580.00,0.2164
7579.00,0.2164
7578.00,0.2164
7577.00,0.2164
7576.00,0.2165
7575.00,0.2166
7574.00,0.2166
7573.00,0.2166
7572.00,0.2165
7571.00,0.2165
7570.00,0.2165
7569.00,0.2165
7568.00,0.2165
7567.00,0.2165
7566.00,0.2165
7565.00,0.2165
7564.00,0.2165
7563.00,0.2166
7562.00,0.2167
7561.00,0.2167
7560.00,0.2168
7559.00,0.2168
7558.00,0.2169
7557.00,0.2169
7556.00,0.2170
7555.00,0.2170
7554.00,0.2170
7553.00,0.2170
7552.00,0.2170
7551.00,0.2171
7550.00,0.2172
7549.00,0.2172
7548.00,0.2172
7547.00,0.2172
7546.00,0.2172
7545.00,0.2173
7544.00,0.2173
7543.00,0.2174
7542.00,0.2174
7541.00,0.2174
7540.00,0.2175
7539.00,0.2175
7538.00,0.2176
7537.00,0.2177
7536.00,0.2177
7535.00,0.2178
7534.00,0.2178
7533.00,0.2178
7532.00,0.2178
7531.00,0.2179
7530.00,0.2179
7529.00,0.2180
7528.00,0.2180
7527.00,0.2181
7526.00,0.2182
7525.00,0.2183
7524.00,0.2185
7523.00,0.2185
7522.00,0.2186
7521.00,0.2186
7520.00,0.2187
7519.00,0.2187
7518.00,0.2187
7517.00,0.2188
7516.00,0.2188
7515.00,0.2190
7514.00,0.2190
7513.00,0.2191
7512.00,0.2190
7511.00,0.2190
7510.00,0.2191
7509.00,0.2192
7508.00,0.2192
7507.00,0.2193
7506.00,0.2193
7505.00,0.2194
7504.00,0.2195
7503.00,0.2196
7502.00,0.2197
7501.00,0.2197
7500.00,0.2197
7499.00,0.2198
7498.00,0.2199
7497.00,0.2199
7496.00,0.2200
7495.00,0.2201
7494.00,0.2201
7493.00,0.2201
7492.00,0.2202
7491.00,0.2202
7490.00,0.2203
7489.00,0.2204
7488.00,0.2206
7487.00,0.2207
7486.00,0.2207
7485.00,0.2208
7484.00,0.2208
7483.00,0.2209
7482.00,0.2209
7481.00,0.2210
7480.00,0.2210
7479.00,0.2212
7478.00,0.2213
7477.00,0.2215
7476.00,0.2216
7475.00,0.2217
7474.00,0.2217
7473.00,0.2217
7472.00,0.2218
7471.00,0.2218
7470.00,0.2219
7469.00,0.2220
7468.00,0.2221
7467.00,0.2222
7466.00,0.2223
7465.00,0.2224
7464.00,0.2225
7463.00,0.2225
7462.00,0.2225
7461.00,0.2225
7460.00,0.2226
7459.00,0.2227
7458.00,0.2228
7457.00,0.2229
7456.00,0.2231
7455.00,0.2232
7454.00,0.2234
7453.00,0.2235
7452.00,0.2236
7451.00,0.2236
7450.00,0.2237
7449.00,0.2237
7448.00,0.2238
7447.00,0.2239
7446.00,0.2240
7445.00,0.2241
7444.00,0.2243
7443.00,0.2244
7442.00,0.2246
7441.00,0.2247
7440.00,0.2248
7439.00,0.2249
7438.00,0.2250
7437.00,0.2251
7436.00,0.2252
7435.00,0.2252
7434.00,0.2253
7433.00,0.2253
7432.00,0.2254
7431.00,0.2255
7430.00,0.2256
7429.00,0.2257
7428.00,0.2258
7427.00,0.2260
7426.00,0.2261
7425.00,0.2264
7424.00,0.2266
7423.00,0.2268
7422.00,0.2270
7421.00,0.2272
7420.00,0.2274
7419.00,0.2275
7418.00,0.2276
7417.00,0.2276
7416.00,0.2276
7415.00,0.2276
7414.00,0.2275
7413.00,0.2275
7412.00,0.2276
7411.00,0.2278
7410.00,0.2281
7409.00,0.2283
7408.00,0.2284
7407.00,0.2285
7406.00,0.2286
7405.00,0.2287
7404.00,0.2288
7403.00,0.2290
7402.00,0.2291
7401.00,0.2292
7400.00,0.2293
7399.00,0.2295
7398.00,0.2298
7397.00,0.2300
7396.00,0.2301
7395.00,0.2302
7394.00,0.2302
7393.00,0.2303
7392.00,0.2304
7391.00,0.2305
7390.00,0.2306
7389.00,0.2307
7388.00,0.2310
7387.00,0.2313
7386.00,0.2317
7385.00,0.2321
7384.00,0.2325
7383.00,0.2326
7382.00,0.2328
7381.00,0.2331
7380.00,0.2334
7379.00,0.2334
7378.00,0.2331
7377.00,0.2327
7376.00,0.2326
7375.00,0.2327
7374.00,0.2330
7373.00,0.2332
7372.00,0.2333
7371.00,0.2333
7370.00,0.2334
7369.00,0.2337
7368.00,0.2339
7367.00,0.2341
7366.00,0.2341
7365.00,0.2339
7364.00,0.2338
7363.00,0.2339
7362.00,0.2343
7361.00,0.2348
7360.00,0.2353
7359.00,0.2356
7358.00,0.2356
7357.00,0.2354
7356.00,0.2354
7355.00,0.2355
7354.00,0.2357
7353.00,0.2358
7352.00,0.2359
7351.00,0.2360
7350.00,0.2363
7349.00,0.2367
7348.00,0.2373
7347.00,0.2378
7346.00,0.2383
7345.00,0.2386
7344.00,0.2388
7343.00,0.2388
7342.00,0.2385
7341.00,0.2381
7340.00,0.2377
7339.00,0.2373
7338.00,0.2368
7337.00,0.2363
7336.00,0.2361
7335.00,0.2363
7334.00,0.2369
7333.00,0.2377
7332.00,0.2384
7331.00,0.2389
7330.00,0.2390
7329.00,0.2391
7328.00,0.2392
7327.00,0.2391
7326.00,0.2387
7325.00,0.2382
7324.00,0.2377
7323.00,0.2376
7322.00,0.2376
7321.00,0.2378
7320.00,0.2379
7319.00,0.2379
7318.00,0.2381
7317.00,0.2385
7316.00,0.2390
7315.00,0.2394
7314.00,0.2395
7313.00,0.2397
7312.00,0.2399
7311.00,0.2402
7310.00,0.2402
7309.00,0.2399
7308.00,0.2394
7307.00,0.2391
7306.00,0.2391
7305.00,0.2392
7304.00,0.2392
7303.00,0.2392
7302.00,0.2392
7301.00,0.2394
7300.00,0.2398
7299.00,0.2402
7298.00,0.2406
7297.00,0.2405
7296.00,0.2402
7295.00,0.2401
7294.00,0.2402
7293.00,0.2404
7292.00,0.2404
7291.00,0.2402
7290.00,0.2398
7289.00,0.2397
7288.00,0.2397
7287.00,0.2398
7286.00,0.2398
7285.00,0.2398
7284.00,0.2396
7283.00,0.2396
7282.00,0.2397
7281.00,0.2399
7280.00,0.2400
7279.00,0.2402
7278.00,0.2403
7277.00,0.2404
7276.00,0.2405
7275.00,0.2405
7274.00,0.2405
7273.00,0.2405
7272.00,0.2406
7271.00,0.2405
7270.00,0.2404
7269.00,0.2404
7268.00,0.2406
7267.00,0.2408
7266.00,0.2411
7265.00,0.2411
7264.00,0.2410
7263.00,0.2409
7262.00,0.2409
7261.00,0.2409
7260.00,0.2409
7259.00,0.2410
7258.00,0.2413
7257.00,0.2416
7256.00,0.2419
7255.00,0.2420
7254.00,0.2420
7253.00,0.2420
7252.00,0.2419
7251.00,0.2418
7250.00,0.2418
7249.00,0.2422
7248.00,0.2430
7247.00,0.2439
7246.00,0.2447
7245.00,0.2450
7244.00,0.2450
7243.00,0.2447
7242.00,0.2442
7241.00,0.2438
7240.00,0.2433
7239.00,0.2433
7238.00,0.2438
7237.00,0.2447
7236.00,0.2458
7235.00,0.2465
7234.00,0.2467
7233.00,0.2466
7232.00,0.2464
7231.00,0.2461
7230.00,0.2455
7229.00,0.2448
7228.00,0.2443
7227.00,0.2442
7226.00,0.2445
7225.00,0.2451
7224.00,0.2455
7223.00,0.2457
7222.00,0.2457
7221.00,0.2458
7220.00,0.2461
7219.00,0.2463
7218.00,0.2464
7217.00,0.2463
7216.00,0.2461
7215.00,0.2460
7214.00,0.2460
7213.00,0.2461
7212.00,0.2462
7211.00,0.2465
7210.00,0.2470
7209.00,0.2475
7208.00,0.2481
7207.00,0.2485
7206.00,0.2487
7205.00,0.2488
7204.00,0.2487
7203.00,0.2485
7202.00,0.2482
7201.00,0.2480
7200.00,0.2479
7199.00,0.2481
7198.00,0.2484
7197.00,0.2487
7196.00,0.2489
7195.00,0.2491
7194.00,0.2493
7193.00,0.2494
7192.00,0.2494
7191.00,0.2495
7190.00,0.2497
7189.00,0.2501
7188.00,0.2506
7187.00,0.2513
7186.00,0.2520
7185.00,0.2527
7184.00,0.2530
7183.00,0.2530
7182.00,0.2529
7181.00,0.2528
7180.00,0.2527
7179.00,0.2525
7178.00,0.2523
7177.00,0.2524
7176.00,0.2527
7175.00,0.2533
7174.00,0.2540
7173.00,0.2548
7172.00,0.2553
7171.00,0.2557
7170.00,0.2559
7169.00,0.2561
7168.00,0.2564
7167.00,0.2567
7166.00,0.2570
7165.00,0.2572
7164.00,0.2573
7163.00,0.2574
7162.00,0.2574
7161.00,0.2576
7160.00,0.2577
7159.00,0.2576
7158.00,0.2574
7157.00,0.2573
7156.00,0.2573
7155.00,0.2575
7154.00,0.2578
7153.00,0.2582
7152.00,0.2586
7151.00,0.2591
7150.00,0.2597
7149.00,0.2603
7148.00,0.2608
7147.00,0.2614
7146.00,0.2619
7145.00,0.2626
7144.00,0.2632
7143.00,0.2636
7142.00,0.2637
7141.00,0.2637
7140.00,0.2638
7139.00,0.2639
7138.00,0.2640
7137.00,0.2638
7136.00,0.2636
7135.00,0.2636
7134.00,0.2637
7133.00,0.2640
7132.00,0.2643
7131.00,0.2647
7130.00,0.2650
7129.00,0.2654
7128.00,0.2657
7127.00,0.2661
7126.00,0.2665
7125.00,0.2670
7124.00,0.2676
7123.00,0.2684
7122.00,0.2694
7121.00,0.2701
7120.00,0.2706
7119.00,0.2707
7118.00,0.2706
7117.00,0.2706
7116.00,0.2704
7115.00,0.2702
7114.00,0.2701
7113.00,0.2703
7112.00,0.2709
7111.00,0.2717
7110.00,0.2726
7109.00,0.2732
7108.00,0.2736
7107.00,0.2737
7106.00,0.2737
7105.00,0.2739
7104.00,0.2740
7103.00,0.2742
7102.00,0.2745
7101.00,0.2751
7100.00,0.2759
7099.00,0.2768
7098.00,0.2775
7097.00,0.2779
7096.00,0.2781
7095.00,0.2783
7094.00,0.2783
7093.00,0.2784
7092.00,0.2784
7091.00,0.2786
7090.00,0.2789
7089.00,0.2794
7088.00,0.2799
7087.00,0.2804
7086.00,0.2810
7085.00,0.2815
7084.00,0.2819
7083.00,0.2822
7082.00,0.2825
7081.00,0.2829
7080.00,0.2833
7079.00,0.2837
7078.00,0.2842
7077.00,0.2847
7076.00,0.2853
7075.00,0.2861
7074.00,0.2868
7073.00,0.2874
7072.00,0.2879
7071.00,0.2882
7070.00,0.2884
7069.00,0.2886
7068.00,0.2887
7067.00,0.2889
7066.00,0.2892
7065.00,0.2895
7064.00,0.2899
7063.00,0.2903
7062.00,0.2907
7061.00,0.2911
7060.00,0.2916
7059.00,0.2921
7058.00,0.2926
7057.00,0.2931
7056.00,0.2936
7055.00,0.2941
7054.00,0.2947
7053.00,0.2953
7052.00,0.2959
7051.00,0.2964
7050.00,0.2969
7049.00,0.2974
7048.00,0.2979
7047.00,0.2984
7046.00,0.2988
7045.00,0.2991
7044.00,0.2994
7043.00,0.2997
7042.00,0.3001
7041.00,0.3005
7040.00,0.3010
7039.00,0.3014
7038.00,0.3018
7037.00,0.3022
7036.00,0.3026
7035.00,0.3030
7034.00,0.3034
7033.00,0.3039
7032.00,0.3044
7031.00,0.3049
7030.00,0.3055
7029.00,0.3061
7028.00,0.3066
7027.00,0.3071
7026.00,0.3076
7025.00,0.3081
7024.00,0.3084
7023.00,0.3087
7022.00,0.3091
7021.00,0.3095
7020.00,0.3099
7019.00,0.3103
7018.00,0.3107
7017.00,0.3112
7016.00,0.3117
7015.00,0.3121
7014.00,0.3125
7013.00,0.3129
7012.00,0.3133
7011.00,0.3137
7010.00,0.3141
7009.00,0.3146
7008.00,0.3151
7007.00,0.3156
7006.00,0.3162
7005.00,0.3167
7004.00,0.3171
7003.00,0.3175
7002.00,0.3179
7001.00,0.3182
7000.00,0.3186
6999.00,0.3189
6998.00,0.3193
6997.00,0.3197
6996.00,0.3201
6995.00,0.3205
6994.00,0.3208
6993.00,0.3212
6992.00,0.3216
6991.00,0.3220
6990.00,0.3223
6989.00,0.3227
6988.00,0.3231
6987.00,0.3236
6986.00,0.3241
6985.00,0.3245
6984.00,0.3249
6983.00,0.3251
6982.00,0.3254
6981.00,0.3257
6980.00,0.3260
6979.00,0.3262
6978.00,0.3265
6977.00,0.3269
6976.00,0.3273
6975.00,0.3278
6974.00,0.3282
6973.00,0.3285
6972.00,0.3288
6971.00,0.3291
6970.00,0.3294
6969.00,0.3296
6968.00,0.3298
6967.00,0.3301
6966.00,0.3304
6965.00,0.3307
6964.00,0.3310
6963.00,0.3313
6962.00,0.3316
6961.00,0.3320
6960.00,0.3324
6959.00,0.3327
6958.00,0.3331
6957.00,0.3334
6956.00,0.3336
6955.00,0.3338
6954.00,0.3340
6953.00,0.3342
6952.00,0.3343
6951.00,0.3346
6950.00,0.3349
6949.00,0.3352
6948.00,0.3355
6947.00,0.3358
6946.00,0.3360
6945.00,0.3362
6944.00,0.3363
6943.00,0.3365
6942.00,0.3367
6941.00,0.3369
6940.00,0.3371
6939.00,0.3374
6938.00,0.3376
6937.00,0.3378
6936.00,0.3381
6935.00,0.3382
6934.00,0.3384
6933.00,0.3385
6932.00,0.3387
6931.00,0.3389
6930.00,0.3391
6929.00,0.3393
6928.00,0.3395
6927.00,0.3397
6926.00,0.3399
6925.00,0.3402
6924.00,0.3404
6923.00,0.3406
6922.00,0.3409
6921.00,0.3411
6920.00,0.3413
6919.00,0.3415
6918.00,0.3416
6917.00,0.3417
6916.00,0.3418
6915.00,0.3418
6914.00,0.3418
6913.00,0.3419
6912.00,0.3420
6911.00,0.3422
6910.00,0.3425
6909.00,0.3427
6908.00,0.3428
6907.00,0.3429
6906.00,0.3430
6905.00,0.3432
6904.00,0.3433
6903.00,0.3434
6902.00,0.3435
6901.00,0.3436
6900.00,0.3438
6899.00,0.3441
6898.00,0.3443
6897.00,0.3445
6896.00,0.3447
6895.00,0.3448
6894.00,0.3448
6893.00,0.3449
6892.00,0.3449
6891.00,0.3450
6890.00,0.3450
6889.00,0.3451
6888.00,0.3452
6887.00,0.3453
6886.00,0.3454
6885.00,0.3456
6884.00,0.3457
6883.00,0.3457
6882.00,0.3458
6881.00,0.3458
6880.00,0.3459
6879.00,0.3461
6878.00,0.3462
6877.00,0.3463
6876.00,0.3464
6875.00,0.3465
6874.00,0.3466
6873.00,0.3467
6872.00,0.3468
6871.00,0.3469
6870.00,0.3470
6869.00,0.3470
6868.00,0.3471
6867.00,0.3472
6866.00,0.3473
6865.00,0.3474
6864.00,0.3475
6863.00,0.3475
6862.00,0.3476
6861.00,0.3476
6860.00,0.3477
6859.00,0.3477
6858.00,0.3477
6857.00,0.3477
6856.00,0.3477
6855.00,0.3478
6854.00,0.3478
6853.00,0.3479
6852.00,0.3479
6851.00,0.3480
6850.00,0.3482
6849.00,0.3483
6848.00,0.3484
6847.00,0.3486
6846.00,0.3487
6845.00,0.3487
6844.00,0.3487
6843.00,0.3487
6842.00,0.3487
6841.00,0.3488
6840.00,0.3488
6839.00,0.3489
6838.00,0.3490
6837.00,0.3490
6836.00,0.3491
6835.00,0.3491
6834.00,0.3491
6833.00,0.3491
6832.00,0.3490
6831.00,0.3490
6830.00,0.3491
6829.00,0.3491
6828.00,0.3492
6827.00,0.3493
6826.00,0.3494
6825.00,0.3495
6824.00,0.3496
6823.00,0.3496
6822.00,0.3496
6821.00,0.3496
6820.00,0.3497
6819.00,0.3497
6818.00,0.3498
6817.00,0.3498
6816.00,0.3499
6815.00,0.3498
6814.00,0.3498
6813.00,0.3498
6812.00,0.3498
6811.00,0.3499
6810.00,0.3499
6809.00,0.3501
6808.00,0.3502
6807.00,0.3503
6806.00,0.3503
6805.00,0.3503
6804.00,0.3503
6803.00,0.3503
6802.00,0.3502
6801.00,0.3501
6800.00,0.3501
6799.00,0.3501
6798.00,0.3501
6797.00,0.3501
6796.00,0.3501
6795.00,0.3501
6794.00,0.3501
6793.00,0.3501
6792.00,0.3501
6791.00,0.3501
6790.00,0.3502
6789.00,0.3502
6788.00,0.3501
6787.00,0.3501
6786.00,0.3500
6785.00,0.3500
6784.00,0.3500
6783.00,0.3499
6782.00,0.3498
6781.00,0.3497
6780.00,0.3497
6779.00,0.3497
6778.00,0.3498
6777.00,0.3498
6776.00,0.3499
6775.00,0.3499
6774.00,0.3499
6773.00,0.3499
6772.00,0.3499
6771.00,0.3498
6770.00,0.3497
6769.00,0.3496
6768.00,0.3496
6767.00,0.3495
6766.00,0.3494
6765.00,0.3495
6764.00,0.3495
6763.00,0.3495
6762.00,0.3495
6761.00,0.3494
6760.00,0.3494
6759.00,0.3495
6758.00,0.3495
6757.00,0.3495
6756.00,0.3494
6755.00,0.3494
6754.00,0.3494
6753.00,0.3495
6752.00,0.3495
6751.00,0.3494
6750.00,0.3493
6749.00,0.3493
6748.00,0.3492
6747.00,0.3492
6746.00,0.3491
6745.00,0.3489
6744.00,0.3489
6743.00,0.3488
6742.00,0.3488
6741.00,0.3487
6740.00,0.3486
6739.00,0.3486
6738.00,0.3485
6737.00,0.3485
6736.00,0.3485
6735.00,0.3485
6734.00,0.3485
6733.00,0.3485
6732.00,0.3484
6731.00,0.3484
6730.00,0.3484
6729.00,0.3483
6728.00,0.3482
6727.00,0.3481
6726.00,0.3480
6725.00,0.3480
6724.00,0.3479
6723.00,0.3479
6722.00,0.3479
6721.00,0.3478
6720.00,0.3478
6719.00,0.3477
6718.00,0.3476
6717.00,0.3476
6716.00,0.3475
6715.00,0.3474
6714.00,0.3474
6713.00,0.3473
6712.00,0.3473
6711.00,0.3472
6710.00,0.3471
6709.00,0.3470
6708.00,0.3470
6707.00,0.3469
6706.00,0.3469
6705.00,0.3469
6704.00,0.3468
6703.00,0.3467
6702.00,0.3467
6701.00,0.3466
6700.00,0.3465
6699.00,0.3464
6698.00,0.3463
6697.00,0.3463
6696.00,0.3462
6695.00,0.3462
6694.00,0.3461
6693.00,0.3460
6692.00,0.3459
6691.00,0.3458
6690.00,0.3457
6689.00,0.3457
6688.00,0.3457
6687.00,0.3457
6686.00,0.3457
6685.00,0.3457
6684.00,0.3457
6683.00,0.3457
6682.00,0.3456
6681.00,0.3455
6680.00,0.3453
6679.00,0.3451
6678.00,0.3450
6677.00,0.3449
6676.00,0.3448
6675.00,0.3447
6674.00,0.3447
6673.00,0.3447
6672.00,0.3447
6671.00,0.3446
6670.00,0.3446
6669.00,0.3445
6668.00,0.3444
6667.00,0.3443
6666.00,0.3441
6665.00,0.3440
6664.00,0.3439
6663.00,0.3439
6662.00,0.3438
6661.00,0.3437
6660.00,0.3437
6659.00,0.3436
6658.00,0.3435
6657.00,0.3434
6656.00,0.3434
6655.00,0.3434
6654.00,0.3433
6653.00,0.3433
6652.00,0.3432
6651.00,0.3431
6650.00,0.3430
6649.00,0.3430
6648.00,0.3429
6647.00,0.3428
6646.00,0.3427
6645.00,0.3426
6644.00,0.3425
6643.00,0.3424
6642.00,0.3423
6641.00,0.3422
6640.00,0.3422
6639.00,0.3421
6638.00,0.3419
6637.00,0.3418
6636.00,0.3417
6635.00,0.3417
6634.00,0.3416
6633.00,0.3416
6632.00,0.3415
6631.00,0.3415
6630.00,0.3414
6629.00,0.3413
6628.00,0.3413
6627.00,0.3411
6626.00,0.3410
6625.00,0.3409
6624.00,0.3407
6623.00,0.3407
6622.00,0.3406
6621.00,0.3406
6620.00,0.3405
6619.00,0.3404
6618.00,0.3404
6617.00,0.3404
6616.00,0.3403
6615.00,0.3402
6614.00,0.3400
6613.00,0.3399
6612.00,0.3399
6611.00,0.3398
6610.00,0.3397
6609.00,0.3397
6608.00,0.3396
6607.00,0.3395
6606.00,0.3394
6605.00,0.3393
6604.00,0.3392
6603.00,0.3391
6602.00,0.3390
6601.00,0.3389
6600.00,0.3389
6599.00,0.3388
6598.00,0.3387
6597.00,0.3387
6596.00,0.3386
6595.00,0.3386
6594.00,0.3385
6593.00,0.3385
6592.00,0.3384
6591.00,0.3383
6590.00,0.3382
6589.00,0.3381
6588.00,0.3380
6587.00,0.3379
6586.00,0.3379
6585.00,0.3378
6584.00,0.3377
6583.00,0.3376
6582.00,0.3376
6581.00,0.3375
6580.00,0.3374
6579.00,0.3373
6578.00,0.3372
6577.00,0.3371
6576.00,0.3371
6575.00,0.3370
6574.00,0.3370
6573.00,0.3369
6572.00,0.3369
6571.00,0.3369
6570.00,0.3368
6569.00,0.3368
6568.00,0.3367
6567.00,0.3366
6566.00,0.3365
6565.00,0.3365
6564.00,0.3364
6563.00,0.3363
6562.00,0.3363
6561.00,0.3362
6560.00,0.3361
6559.00,0.3361
6558.00,0.3360
6557.00,0.3360
6556.00,0.3359
6555.00,0.3358
6554.00,0.3358
6553.00,0.3357
6552.00,0.3357
6551.00,0.3356
6550.00,0.3356
6549.00,0.3356
6548.00,0.3355
6547.00,0.3355
6546.00,0.3354
6545.00,0.3354
6544.00,0.3353
6543.00,0.3352
6542.00,0.3352
6541.00,0.3351
6540.00,0.3351
6539.00,0.3350
6538.00,0.3350
6537.00,0.3349
6536.00,0.3349
6535.00,0.3348
6534.00,0.3348
6533.00,0.3348
6532.00,0.3348
6531.00,0.3347
6530.00,0.3347
6529.00,0.3347
6528.00,0.3346
6527.00,0.3345
6526.00,0.3344
6525.00,0.3344
6524.00,0.3344
6523.00,0.3344
6522.00,0.3343
6521.00,0.3343
6520.00,0.3343
6519.00,0.3343
6518.00,0.3343
6517.00,0.3343
6516.00,0.3342
6515.00,0.3342
6514.00,0.3342
6513.00,0.3341
6512.00,0.3341
6511.00,0.3341
6510.00,0.3342
6509.00,0.3342
6508.00,0.3342
6507.00,0.3342
6506.00,0.3341
6505.00,0.3341
6504.00,0.3341
6503.00,0.3340
6502.00,0.3340
6501.00,0.3339
6500.00,0.3339
6499.00,0.3339
6498.00,0.3338
6497.00,0.3338
6496.00,0.3339
6495.00,0.3339
6494.00,0.3339
6493.00,0.3339
6492.00,0.3338
6491.00,0.3338
6490.00,0.3338
6489.00,0.3337
6488.00,0.3337
6487.00,0.3337
6486.00,0.3337
6485.00,0.3337
6484.00,0.3337
6483.00,0.3337
6482.00,0.3337
6481.00,0.3337
6480.00,0.3337
6479.00,0.3337
6478.00,0.3337
6477.00,0.3337
6476.00,0.3337
6475.00,0.3337
6474.00,0.3337
6473.00,0.3337
6472.00,0.3337
6471.00,0.3338
6470.00,0.3338
6469.00,0.3338
6468.00,0.3338
6467.00,0.3339
6466.00,0.3338
6465.00,0.3338
6464.00,0.3338
6463.00,0.3338
6462.00,0.3338
6461.00,0.3338
6460.00,0.3338
6459.00,0.3338
6458.00,0.3338
6457.00,0.3338
6456.00,0.3338
6455.00,0.3338
6454.00,0.3337
6453.00,0.3337
6452.00,0.3338
6451.00,0.3338
6450.00,0.3338
6449.00,0.3338
6448.00,0.3338
6447.00,0.3339
6446.00,0.3339
6445.00,0.3339
6444.00,0.3339
6443.00,0.3339
6442.00,0.3339
6441.00,0.3340
6440.00,0.3340
6439.00,0.3339
6438.00,0.3339
6437.00,0.3339
6436.00,0.3340
6435.00,0.3340
6434.00,0.3340
6433.00,0.3340
6432.00,0.3340
6431.00,0.3340
6430.00,0.3340
6429.00,0.3341
6428.00,0.3341
6427.00,0.3341
6426.00,0.3341
6425.00,0.3342
6424.00,0.3342
6423.00,0.3342
6422.00,0.3343
6421.00,0.3343
6420.00,0.3343
6419.00,0.3343
6418.00,0.3343
6417.00,0.3343
6416.00,0.3343
6415.00,0.3342
6414.00,0.3342
6413.00,0.3343
6412.00,0.3343
6411.00,0.3343
6410.00,0.3344
6409.00,0.3344
6408.00,0.3344
6407.00,0.3344
6406.00,0.3344
6405.00,0.3344
6404.00,0.3344
6403.00,0.3344
6402.00,0.3344
6401.00,0.3344
6400.00,0.3344
6399.00,0.3344
6398.00,0.3344
6397.00,0.3344
6396.00,0.3345
6395.00,0.3345
6394.00,0.3345
6393.00,0.3345
6392.00,0.3345
6391.00,0.3345
6390.00,0.3345
6389.00,0.3345
6388.00,0.3345
6387.00,0.3345
6386.00,0.3345
6385.00,0.3345
6384.00,0.3345
6383.00,0.3345
6382.00,0.3345
6381.00,0.3345
6380.00,0.3346
6379.00,0.3346
6378.00,0.3346
6377.00,0.3345
6376.00,0.3345
6375.00,0.3345
6374.00,0.3344
6373.00,0.3345
6372.00,0.3345
6371.00,0.3346
6370.00,0.3346
6369.00,0.3346
6368.00,0.3346
6367.00,0.3347
6366.00,0.3347
6365.00,0.3347
6364.00,0.3347
6363.00,0.3347
6362.00,0.3347
6361.00,0.3347
6360.00,0.3347
6359.00,0.3347
6358.00,0.3347
6357.00,0.3347
6356.00,0.3347
6355.00,0.3347
6354.00,0.3346
6353.00,0.3346
6352.00,0.3346
6351.00,0.3345
6350.00,0.3345
6349.00,0.3346
6348.00,0.3346
6347.00,0.3346
6346.00,0.3346
6345.00,0.3346
6344.00,0.3346
6343.00,0.3346
6342.00,0.3345
6341.00,0.3345
6340.00,0.3345
6339.00,0.3345
6338.00,0.3345
6337.00,0.3344
6336.00,0.3344
6335.00,0.3344
6334.00,0.3344
6333.00,0.3343
6332.00,0.3343
6331.00,0.3343
6330.00,0.3342
6329.00,0.3342
6328.00,0.3342
6327.00,0.3341
6326.00,0.3341
6325.00,0.3341
6324.00,0.3340
6323.00,0.3340
6322.00,0.3339
6321.00,0.3338
6320.00,0.3338
6319.00,0.3338
6318.00,0.3337
6317.00,0.3337
6316.00,0.3337
6315.00,0.3337
6314.00,0.3337
6313.00,0.3337
6312.00,0.3337
6311.00,0.3336
6310.00,0.3335
6309.00,0.3335
6308.00,0.3334
6307.00,0.3334
6306.00,0.3334
6305.00,0.3334
6304.00,0.3334
6303.00,0.3333
6302.00,0.3332
6301.00,0.3332
6300.00,0.3331
6299.00,0.3331
6298.00,0.3331
6297.00,0.3330
6296.00,0.3330
6295.00,0.3329
6294.00,0.3328
6293.00,0.3328
6292.00,0.3327
6291.00,0.3327
6290.00,0.3326
6289.00,0.3326
6288.00,0.3326
6287.00,0.3325
6286.00,0.3325
6285.00,0.3324
6284.00,0.3323
6283.00,0.3322
6282.00,0.3322
6281.00,0.3321
6280.00,0.3321
6279.00,0.3320
6278.00,0.3320
6277.00,0.3319
6276.00,0.3318
6275.00,0.3317
6274.00,0.3316
6273.00,0.3316
6272.00,0.3315
6271.00,0.3315
6270.00,0.3314
6269.00,0.3313
6268.00,0.3312
6267.00,0.3312
6266.00,0.3311
6265.00,0.3310
6264.00,0.3310
6263.00,0.3309
6262.00,0.3308
6261.00,0.3308
6260.00,0.3307
6259.00,0.3306
6258.00,0.3305
6257.00,0.3304
6256.00,0.3304
6255.00,0.3303
6254.00,0.3302
6253.00,0.3302
6252.00,0.3301
6251.00,0.3301
6250.00,0.3300
6249.00,0.3299
6248.00,0.3299
6247.00,0.3298
6246.00,0.3297
6245.00,0.3296
6244.00,0.3295
6243.00,0.3293
6242.00,0.3292
6241.00,0.3291
6240.00,0.3290
6239.00,0.3289
6238.00,0.3288
6237.00,0.3287
6236.00,0.3286
6235.00,0.3285
6234.00,0.3284
6233.00,0.3283
6232.00,0.3282
6231.00,0.3281
6230.00,0.3280
6229.00,0.3280
6228.00,0.3279
6227.00,0.3278
6226.00,0.3278
6225.00,0.3277
6224.00,0.3277
6223.00,0.3276
6222.00,0.3275
6221.00,0.3274
6220.00,0.3273
6219.00,0.3272
6218.00,0.3271
6217.00,0.3270
6216.00,0.3269
6215.00,0.3268
6214.00,0.3267
6213.00,0.3266
6212.00,0.3265
6211.00,0.3264
6210.00,0.3264
6209.00,0.3263
6208.00,0.3263
6207.00,0.3262
6206.00,0.3262
6205.00,0.3261
6204.00,0.3260
6203.00,0.3259
6202.00,0.3258
6201.00,0.3257
6200.00,0.3255
6199.00,0.3254
6198.00,0.3253
6197.00,0.3252
6196.00,0.3251
6195.00,0.3250
6194.00,0.3249
6193.00,0.3248
6192.00,0.3247
6191.00,0.3246
6190.00,0.3246
6189.00,0.3245
6188.00,0.3244
6187.00,0.3243
6186.00,0.3241
6185.00,0.3240
6184.00,0.3239
6183.00,0.3238
6182.00,0.3237
6181.00,0.3237
6180.00,0.3237
6179.00,0.3236
6178.00,0.3235
6177.00,0.3234
6176.00,0.3233
6175.00,0.3232
6174.00,0.3232
6173.00,0.3232
6172.00,0.3231
6171.00,0.3230
6170.00,0.3229
6169.00,0.3227
6168.00,0.3226
6167.00,0.3225
6166.00,0.3224
6165.00,0.3223
6164.00,0.3223
6163.00,0.3222
6162.00,0.3221
6161.00,0.3220
6160.00,0.3218
6159.00,0.3217
6158.00,0.3216
6157.00,0.3215
6156.00,0.3214
6155.00,0.3213
6154.00,0.3212
6153.00,0.3212
6152.00,0.3211
6151.00,0.3211
6150.00,0.3210
6149.00,0.3209
6148.00,0.3209
6147.00,0.3208
6146.00,0.3207
6145.00,0.3205
6144.00,0.3204
6143.00,0.3203
6142.00,0.3202
6141.00,0.3201
6140.00,0.3200
6139.00,0.3199
6138.00,0.3198
6137.00,0.3197
6136.00,0.3196
6135.00,0.3195
6134.00,0.3194
6133.00,0.3193
6132.00,0.3193
6131.00,0.3192
6130.00,0.3191
6129.00,0.3189
6128.00,0.3188
6127.00,0.3187
6126.00,0.3187
6125.00,0.3186
6124.00,0.3185
6123.00,0.3185
6122.00,0.3184
6121.00,0.3183
6120.00,0.3182
6119.00,0.3181
6118.00,0.3180
6117.00,0.3179
6116.00,0.3178
6115.00,0.3177
6114.00,0.3176
6113.00,0.3174
6112.00,0.3173
6111.00,0.3172
6110.00,0.3172
6109.00,0.3171
6108.00,0.3170
6107.00,0.3169
6106.00,0.3169
6105.00,0.3168
6104.00,0.3167
6103.00,0.3166
6102.00,0.3165
6101.00,0.3164
6100.00,0.3163
6099.00,0.3163
6098.00,0.3162
6097.00,0.3161
6096.00,0.3161
6095.00,0.3160
6094.00,0.3160
6093.00,0.3159
6092.00,0.3158
6091.00,0.3156
6090.00,0.3155
6089.00,0.3154
6088.00,0.3153
6087.00,0.3152
6086.00,0.3151
6085.00,0.3150
6084.00,0.3149
6083.00,0.3149
6082.00,0.3148
6081.00,0.3147
6080.00,0.3146
6079.00,0.3145
6078.00,0.3144
6077.00,0.3143
6076.00,0.3143
6075.00,0.3142
6074.00,0.3141
6073.00,0.3141
6072.00,0.3140
6071.00,0.3139
6070.00,0.3139
6069.00,0.3138
6068.00,0.3138
6067.00,0.3137
6066.00,0.3136
6065.00,0.3135
6064.00,0.3134
6063.00,0.3134
6062.00,0.3133
6061.00,0.3132
6060.00,0.3131
6059.00,0.3130
6058.00,0.3129
6057.00,0.3129
6056.00,0.3128
6055.00,0.3127
6054.00,0.3127
6053.00,0.3126
6052.00,0.3126
6051.00,0.3125
6050.00,0.3125
6049.00,0.3124
6048.00,0.3123
6047.00,0.3123
6046.00,0.3122
6045.00,0.3121
6044.00,0.3120
6043.00,0.3119
6042.00,0.3119
6041.00,0.3119
6040.00,0.3119
6039.00,0.3118
6038.00,0.3118
6037.00,0.3117
6036.00,0.3117
6035.00,0.3116
6034.00,0.3116
6033.00,0.3115
6032.00,0.3115
6031.00,0.3114
6030.00,0.3114
6029.00,0.3113
6028.00,0.3112
6027.00,0.3112
6026.00,0.3111
6025.00,0.3111
6024.00,0.3111
6023.00,0.3111
6022.00,0.3110
6021.00,0.3110
6020.00,0.3110
6019.00,0.3109
6018.00,0.3109
6017.00,0.3109
6016.00,0.3109
6015.00,0.3108
6014.00,0.3108
6013.00,0.3107
6012.00,0.3107
6011.00,0.3107
6010.00,0.3106
6009.00,0.3106
6008.00,0.3106
6007.00,0.3106
6006.00,0.3106
6005.00,0.3106
6004.00,0.3106
6003.00,0.3106
6002.00,0.3106
6001.00,0.3106
6000.00,0.3106
5999.00,0.3106
5998.00,0.3105
5997.00,0.3105
5996.00,0.3105
5995.00,0.3106
5994.00,0.3106
5993.00,0.3106
5992.00,0.3106
5991.00,0.3106
5990.00,0.3106
5989.00,0.3106
5988.00,0.3106
5987.00,0.3106
5986.00,0.3107
5985.00,0.3107
5984.00,0.3107
5983.00,0.3107
5982.00,0.3107
5981.00,0.3107
5980.00,0.3108
5979.00,0.3108
5978.00,0.3108
5977.00,0.3109
5976.00,0.3109
5975.00,0.3109
5974.00,0.3110
5973.00,0.3110
5972.00,0.3111
5971.00,0.3112
5970.00,0.3112
5969.00,0.3113
5968.00,0.3114
5967.00,0.3115
5966.00,0.3116
5965.00,0.3117
5964.00,0.3117
5963.00,0.3118
5962.00,0.3119
5961.00,0.3121
5960.00,0.3122
5959.00,0.3123
5958.00,0.3124
5957.00,0.3125
5956.00,0.3127
5955.00,0.3128
5954.00,0.3129
5953.00,0.3130
5952.00,0.3131
5951.00,0.3133
5950.00,0.3134
5949.00,0.3135
5948.00,0.3136
5947.00,0.3137
5946.00,0.3139
5945.00,0.3140
5944.00,0.3142
5943.00,0.3143
5942.00,0.3145
5941.00,0.3147
5940.00,0.3148
5939.00,0.3150
5938.00,0.3151
5937.00,0.3152
5936.00,0.3154
5935.00,0.3155
5934.00,0.3156
5933.00,0.3157
5932.00,0.3159
5931.00,0.3160
5930.00,0.3162
5929.00,0.3163
5928.00,0.3165
5927.00,0.3167
5926.00,0.3168
5925.00,0.3169
5924.00,0.3171
5923.00,0.3172
5922.00,0.3173
5921.00,0.3174
5920.00,0.3175
5919.00,0.3176
5918.00,0.3177
5917.00,0.3179
5916.00,0.3180
5915.00,0.3181
5914.00,0.3182
5913.00,0.3183
5912.00,0.3184
5911.00,0.3184
5910.00,0.3185
5909.00,0.3185
5908.00,0.3186
5907.00,0.3186
5906.00,0.3187
5905.00,0.3187
5904.00,0.3188
5903.00,0.3189
5902.00,0.3190
5901.00,0.3190
5900.00,0.3191
5899.00,0.3192
5898.00,0.3192
5897.00,0.3192
5896.00,0.3193
5895.00,0.3193
5894.00,0.3193
5893.00,0.3193
5892.00,0.3194
5891.00,0.3194
5890.00,0.3195
5889.00,0.3195
5888.00,0.3195
5887.00,0.3196
5886.00,0.3196
5885.00,0.3197
5884.00,0.3197
5883.00,0.3197
5882.00,0.3198
5881.00,0.3198
5880.00,0.3199
5879.00,0.3199
5878.00,0.3199
5877.00,0.3200
5876.00,0.3200
5875.00,0.3201
5874.00,0.3201
5873.00,0.3201
5872.00,0.3202
5871.00,0.3202
5870.00,0.3203
5869.00,0.3203
5868.00,0.3204
5867.00,0.3204
5866.00,0.3205
5865.00,0.3206
5864.00,0.3206
5863.00,0.3207
5862.00,0.3207
5861.00,0.3208
5860.00,0.3208
5859.00,0.3209
5858.00,0.3209
5857.00,0.3209
5856.00,0.3210
5855.00,0.3211
5854.00,0.3211
5853.00,0.3212
5852.00,0.3213
5851.00,0.3214
5850.00,0.3214
5849.00,0.3215
5848.00,0.3215
5847.00,0.3216
5846.00,0.3217
5845.00,0.3217
5844.00,0.3218
5843.00,0.3219
5842.00,0.3220
5841.00,0.3221
5840.00,0.3222
5839.00,0.3223
5838.00,0.3224
5837.00,0.3224
5836.00,0.3225
5835.00,0.3226
5834.00,0.3227
5833.00,0.3228
5832.00,0.3229
5831.00,0.3230
5830.00,0.3232
5829.00,0.3233
5828.00,0.3234
5827.00,0.3236
5826.00,0.3237
5825.00,0.3239
5824.00,0.3239
5823.00,0.3240
5822.00,0.3241
5821.00,0.3242
5820.00,0.3243
5819.00,0.3244
5818.00,0.3246
5817.00,0.3247
5816.00,0.3248
5815.00,0.3249
5814.00,0.3250
5813.00,0.3251
5812.00,0.3253
5811.00,0.3254
5810.00,0.3255
5809.00,0.3257
5808.00,0.3258
5807.00,0.3258
5806.00,0.3259
5805.00,0.3260
5804.00,0.3261
5803.00,0.3262
5802.00,0.3263
5801.00,0.3264
5800.00,0.3265
5799.00,0.3265
5798.00,0.3266
5797.00,0.3267
5796.00,0.3269
5795.00,0.3270
5794.00,0.3271
5793.00,0.3273
5792.00,0.3273
5791.00,0.3274
5790.00,0.3275
5789.00,0.3275
5788.00,0.3276
5787.00,0.3276
5786.00,0.3277
5785.00,0.3278
5784.00,0.3279
5783.00,0.3279
5782.00,0.3280
5781.00,0.3280
5780.00,0.3281
5779.00,0.3281
5778.00,0.3282
5777.00,0.3282
5776.00,0.3283
5775.00,0.3283
5774.00,0.3284
5773.00,0.3285
5772.00,0.3285
5771.00,0.3286
5770.00,0.3286
5769.00,0.3286
5768.00,0.3286
5767.00,0.3286
5766.00,0.3287
5765.00,0.3287
5764.00,0.3288
5763.00,0.3288
5762.00,0.3288
5761.00,0.3288
5760.00,0.3288
5759.00,0.3288
5758.00,0.3288
5757.00,0.3289
5756.00,0.3289
5755.00,0.3289
5754.00,0.3289
5753.00,0.3289
5752.00,0.3289
5751.00,0.3290
5750.00,0.3290
5749.00,0.3291
5748.00,0.3292
5747.00,0.3292
5746.00,0.3292
5745.00,0.3292
5744.00,0.3292
5743.00,0.3292
5742.00,0.3293
5741.00,0.3293
5740.00,0.3293
5739.00,0.3294
5738.00,0.3294
5737.00,0.3294
5736.00,0.3294
5735.00,0.3294
5734.00,0.3294
5733.00,0.3294
5732.00,0.3294
5731.00,0.3294
5730.00,0.3294
5729.00,0.3294
5728.00,0.3294
5727.00,0.3295
5726.00,0.3295
5725.00,0.3296
5724.00,0.3296
5723.00,0.3296
5722.00,0.3296
5721.00,0.3296
5720.00,0.3296
5719.00,0.3296
5718.00,0.3296
5717.00,0.3296
5716.00,0.3296
5715.00,0.3297
5714.00,0.3297
5713.00,0.3298
5712.00,0.3298
5711.00,0.3298
5710.00,0.3298
5709.00,0.3297
5708.00,0.3297
5707.00,0.3297
5706.00,0.3297
5705.00,0.3297
5704.00,0.3298
5703.00,0.3298
5702.00,0.3299
5701.00,0.3299
5700.00,0.3299
5699.00,0.3299
5698.00,0.3300
5697.00,0.3300
5696.00,0.3300
5695.00,0.3301
5694.00,0.3301
5693.00,0.3302
5692.00,0.3302
5691.00,0.3302
5690.00,0.3302
5689.00,0.3303
5688.00,0.3303
5687.00,0.3303
5686.00,0.3303
5685.00,0.3303
5684.00,0.3303
5683.00,0.3303
5682.00,0.3304
5681.00,0.3304
5680.00,0.3304
5679.00,0.3304
5678.00,0.3304
5677.00,0.3304
5676.00,0.3305
5675.00,0.3305
5674.00,0.3305
5673.00,0.3305
5672.00,0.3305
5671.00,0.3306
5670.00,0.3306
5669.00,0.3306
5668.00,0.3307
5667.00,0.3307
5666.00,0.3307
5665.00,0.3306
5664.00,0.3306
5663.00,0.3306
5662.00,0.3305
5661.00,0.3305
5660.00,0.3305
5659.00,0.3305
5658.00,0.3305
5657.00,0.3306
5656.00,0.3306
5655.00,0.3305
5654.00,0.3305
5653.00,0.3305
5652.00,0.3304
5651.00,0.3304
5650.00,0.3304
5649.00,0.3304
5648.00,0.3304
5647.00,0.3304
5646.00,0.3304
5645.00,0.3304
5644.00,0.3304
5643.00,0.3304
5642.00,0.3304
5641.00,0.3304
5640.00,0.3304
5639.00,0.3304
5638.00,0.3303
5637.00,0.3303
5636.00,0.3304
5635.00,0.3303
5634.00,0.3303
5633.00,0.3303
5632.00,0.3303
5631.00,0.3303
5630.00,0.3302
5629.00,0.3302
5628.00,0.3301
5627.00,0.3301
5626.00,0.3301
5625.00,0.3301
5624.00,0.3301
5623.00,0.3300
5622.00,0.3300
5621.00,0.3300
5620.00,0.3300
5619.00,0.3300
5618.00,0.3299
5617.00,0.3299
5616.00,0.3299
5615.00,0.3298
5614.00,0.3298
5613.00,0.3297
5612.00,0.3297
5611.00,0.3296
5610.00,0.3296
5609.00,0.3296
5608.00,0.3296
5607.00,0.3296
5606.00,0.3296
5605.00,0.3296
5604.00,0.3295
5603.00,0.3295
5602.00,0.3294
5601.00,0.3293
5600.00,0.3293
5599.00,0.3292
5598.00,0.3292
5597.00,0.3291
5596.00,0.3290
5595.00,0.3290
5594.00,0.3289
5593.00,0.3289
5592.00,0.3288
5591.00,0.3288
5590.00,0.3288
5589.00,0.3287
5588.00,0.3287
5587.00,0.3286
5586.00,0.3285
5585.00,0.3285
5584.00,0.3284
5583.00,0.3284
5582.00,0.3283
5581.00,0.3283
5580.00,0.3282
5579.00,0.3282
5578.00,0.3281
5577.00,0.3280
5576.00,0.3280
5575.00,0.3279
5574.00,0.3279
5573.00,0.3278
5572.00,0.3277
5571.00,0.3277
5570.00,0.3276
5569.00,0.3276
5568.00,0.3276
5567.00,0.3275
5566.00,0.3274
5565.00,0.3273
5564.00,0.3272
5563.00,0.3271
5562.00,0.3270
5561.00,0.3269
5560.00,0.3269
5559.00,0.3269
5558.00,0.3270
5557.00,0.3270
5556.00,0.3270
5555.00,0.3271
5554.00,0.3270
5553.00,0.3270
5552.00,0.3270
5551.00,0.3269
5550.00,0.3268
5549.00,0.3267
5548.00,0.3265
5547.00,0.3264
5546.00,0.3262
5545.00,0.3261
5544.00,0.3260
5543.00,0.3259
5542.00,0.3259
5541.00,0.3260
5540.00,0.3262
5539.00,0.3262
5538.00,0.3263
5537.00,0.3262
5536.00,0.3261
5535.00,0.3259
5534.00,0.3257
5533.00,0.3255
5532.00,0.3254
5531.00,0.3254
5530.00,0.3253
5529.00,0.3252
5528.00,0.3252
5527.00,0.3253
5526.00,0.3254
5525.00,0.3255
5524.00,0.3256
5523.00,0.3255
5522.00,0.3254
5521.00,0.3254
5520.00,0.3253
5519.00,0.3253
5518.00,0.3252
5517.00,0.3251
5516.00,0.3249
5515.00,0.3247
5514.00,0.3245
5513.00,0.3245
5512.00,0.3248
5511.00,0.3251
5510.00,0.3254
5509.00,0.3256
5508.00,0.3255
5507.00,0.3253
5506.00,0.3250
5505.00,0.3246
5504.00,0.3244
5503.00,0.3243
5502.00,0.3243
5501.00,0.3242
5500.00,0.3241
5499.00,0.3242
5498.00,0.3244
5497.00,0.3250
5496.00,0.3255
5495.00,0.3259
5494.00,0.3262
5493.00,0.3262
5492.00,0.3260
5491.00,0.3255
5490.00,0.3249
5489.00,0.3244
5488.00,0.3240
5487.00,0.3236
5486.00,0.3232
5485.00,0.3229
5484.00,0.3227
5483.00,0.3226
5482.00,0.3227
5481.00,0.3230
5480.00,0.3236
5479.00,0.3244
5478.00,0.3250
5477.00,0.3252
5476.00,0.3250
5475.00,0.3244
5474.00,0.3238
5473.00,0.3232
5472.00,0.3230
5471.00,0.3230
5470.00,0.3233
5469.00,0.3235
5468.00,0.3235
5467.00,0.3233
5466.00,0.3233
5465.00,0.3234
5464.00,0.3236
5463.00,0.3236
5462.00,0.3234
5461.00,0.3231
5460.00,0.3227
5459.00,0.3224
5458.00,0.3220
5457.00,0.3216
5456.00,0.3214
5455.00,0.3213
5454.00,0.3214
5453.00,0.3215
5452.00,0.3218
5451.00,0.3222
5450.00,0.3227
5449.00,0.3231
5448.00,0.3232
5447.00,0.3231
5446.00,0.3230
5445.00,0.3231
5444.00,0.3230
5443.00,0.3225
5442.00,0.3219
5441.00,0.3213
5440.00,0.3209
5439.00,0.3209
5438.00,0.3209
5437.00,0.3210
5436.00,0.3211
5435.00,0.3212
5434.00,0.3214
5433.00,0.3215
5432.00,0.3217
5431.00,0.3218
5430.00,0.3217
5429.00,0.3213
5428.00,0.3205
5427.00,0.3195
5426.00,0.3186
5425.00,0.3180
5424.00,0.3178
5423.00,0.3177
5422.00,0.3177
5421.00,0.3176
5420.00,0.3177
5419.00,0.3182
5418.00,0.3190
5417.00,0.3199
5416.00,0.3206
5415.00,0.3213
5414.00,0.3216
5413.00,0.3215
5412.00,0.3208
5411.00,0.3198
5410.00,0.3189
5409.00,0.3182
5408.00,0.3176
5407.00,0.3172
5406.00,0.3170
5405.00,0.3168
5404.00,0.3167
5403.00,0.3166
5402.00,0.3165
5401.00,0.3166
5400.00,0.3170
5399.00,0.3175
5398.00,0.3182
5397.00,0.3187
5396.00,0.3189
5395.00,0.3185
5394.00,0.3178
5393.00,0.3171
5392.00,0.3165
5391.00,0.3164
5390.00,0.3167
5389.00,0.3172
5388.00,0.3178
5387.00,0.3180
5386.00,0.3178
5385.00,0.3173
5384.00,0.3167
5383.00,0.3163
5382.00,0.3164
5381.00,0.3169
5380.00,0.3177
5379.00,0.3184
5378.00,0.3188
5377.00,0.3188
5376.00,0.3184
5375.00,0.3177
5374.00,0.3169
5373.00,0.3163
5372.00,0.3161
5371.00,0.3160
5370.00,0.3161
5369.00,0.3164
5368.00,0.3168
5367.00,0.3172
5366.00,0.3175
5365.00,0.3176
5364.00,0.3175
5363.00,0.3173
5362.00,0.3169
5361.00,0.3167
5360.00,0.3167
5359.00,0.3172
5358.00,0.3183
5357.00,0.3195
5356.00,0.3206
5355.00,0.3211
5354.00,0.3211
5353.00,0.3207
5352.00,0.3201
5351.00,0.3197
5350.00,0.3198
5349.00,0.3206
5348.00,0.3218
5347.00,0.3227
5346.00,0.3229
5345.00,0.3225
5344.00,0.3222
5343.00,0.3221
5342.00,0.3223
5341.00,0.3228
5340.00,0.3234
5339.00,0.3237
5338.00,0.3234
5337.00,0.3228
5336.00,0.3222
5335.00,0.3218
5334.00,0.3217
5333.00,0.3221
5332.00,0.3227
5331.00,0.3233
5330.00,0.3238
5329.00,0.3239
5328.00,0.3239
5327.00,0.3238
5326.00,0.3236
5325.00,0.3233
5324.00,0.3232
5323.00,0.3233
5322.00,0.3238
5321.00,0.3243
5320.00,0.3248
5319.00,0.3253
5318.00,0.3257
5317.00,0.3261
5316.00,0.3264
5315.00,0.3267
5314.00,0.3271
5313.00,0.3276
5312.00,0.3283
5311.00,0.3293
5310.00,0.3302
5309.00,0.3308
5308.00,0.3312
5307.00,0.3315
5306.00,0.3317
5305.00,0.3320
5304.00,0.3324
5303.00,0.3331
5302.00,0.3338
5301.00,0.3345
5300.00,0.3350
5299.00,0.3355
5298.00,0.3360
5297.00,0.3366
5296.00,0.3375
5295.00,0.3386
5294.00,0.3399
5293.00,0.3412
5292.00,0.3422
5291.00,0.3430
5290.00,0.3437
5289.00,0.3443
5288.00,0.3449
5287.00,0.3457
5286.00,0.3466
5285.00,0.3476
5284.00,0.3486
5283.00,0.3496
5282.00,0.3504
5281.00,0.3513
5280.00,0.3522
5279.00,0.3532
5278.00,0.3542
5277.00,0.3551
5276.00,0.3562
5275.00,0.3574
5274.00,0.3588
5273.00,0.3602
5272.00,0.3617
5271.00,0.3633
5270.00,0.3648
5269.00,0.3664
5268.00,0.3682
5267.00,0.3700
5266.00,0.3716
5265.00,0.3731
5264.00,0.3743
5263.00,0.3752
5262.00,0.3757
5261.00,0.3763
5260.00,0.3773
5259.00,0.3787
5258.00,0.3805
5257.00,0.3823
5256.00,0.3838
5255.00,0.3851
5254.00,0.3862
5253.00,0.3874
5252.00,0.3889
5251.00,0.3908
5250.00,0.3928
5249.00,0.3947
5248.00,0.3964
5247.00,0.3976
5246.00,0.3983
5245.00,0.3988
5244.00,0.3995
5243.00,0.4003
5242.00,0.4012
5241.00,0.4021
5240.00,0.4032
5239.00,0.4045
5238.00,0.4060
5237.00,0.4074
5236.00,0.4088
5235.00,0.4104
5234.00,0.4119
5233.00,0.4132
5232.00,0.4143
5231.00,0.4154
5230.00,0.4167
5229.00,0.4181
5228.00,0.4195
5227.00,0.4209
5226.00,0.4219
5225.00,0.4226
5224.00,0.4230
5223.00,0.4235
5222.00,0.4242
5221.00,0.4252
5220.00,0.4264
5219.00,0.4274
5218.00,0.4281
5217.00,0.4287
5216.00,0.4293
5215.00,0.4300
5214.00,0.4310
5213.00,0.4323
5212.00,0.4339
5211.00,0.4357
5210.00,0.4375
5209.00,0.4390
5208.00,0.4399
5207.00,0.4400
5206.00,0.4397
5205.00,0.4393
5204.00,0.4391
5203.00,0.4393
5202.00,0.4399
5201.00,0.4410
5200.00,0.4421
5199.00,0.4430
5198.00,0.4435
5197.00,0.4438
5196.00,0.4440
5195.00,0.4442
5194.00,0.4445
5193.00,0.4451
5192.00,0.4458
5191.00,0.4465
5190.00,0.4472
5189.00,0.4479
5188.00,0.4484
5187.00,0.4489
5186.00,0.4491
5185.00,0.4493
5184.00,0.4494
5183.00,0.4495
5182.00,0.4496
5181.00,0.4497
5180.00,0.4500
5179.00,0.4502
5178.00,0.4503
5177.00,0.4504
5176.00,0.4505
5175.00,0.4507
5174.00,0.4510
5173.00,0.4512
5172.00,0.4513
5171.00,0.4513
5170.00,0.4513
5169.00,0.4513
5168.00,0.4513
5167.00,0.4515
5166.00,0.4517
5165.00,0.4518
5164.00,0.4518
5163.00,0.4517
5162.00,0.4515
5161.00,0.4514
5160.00,0.4514
5159.00,0.4515
5158.00,0.4515
5157.00,0.4514
5156.00,0.4511
5155.00,0.4508
5154.00,0.4505
5153.00,0.4502
5152.00,0.4499
5151.00,0.4497
5150.00,0.4495
5149.00,0.4492
5148.00,0.4490
5147.00,0.4488
5146.00,0.4487
5145.00,0.4486
5144.00,0.4485
5143.00,0.4483
5142.00,0.4480
5141.00,0.4476
5140.00,0.4472
5139.00,0.4468
5138.00,0.4465
5137.00,0.4462
5136.00,0.4460
5135.00,0.4457
5134.00,0.4454
5133.00,0.4450
5132.00,0.4446
5131.00,0.4443
5130.00,0.4439
5129.00,0.4435
5128.00,0.4432
5127.00,0.4428
5126.00,0.4425
5125.00,0.4423
5124.00,0.4420
5123.00,0.4418
5122.00,0.4416
5121.00,0.4413
5120.00,0.4409
5119.00,0.4406
5118.00,0.4402
5117.00,0.4398
5116.00,0.4395
5115.00,0.4391
5114.00,0.4387
5113.00,0.4383
5112.00,0.4379
5111.00,0.4376
5110.00,0.4372
5109.00,0.4369
5108.00,0.4366
5107.00,0.4363
5106.00,0.4359
5105.00,0.4356
5104.00,0.4352
5103.00,0.4349
5102.00,0.4345
5101.00,0.4342
5100.00,0.4339
5099.00,0.4337
5098.00,0.4334
5097.00,0.4331
5096.00,0.4328
5095.00,0.4325
5094.00,0.4321
5093.00,0.4318
5092.00,0.4314
5091.00,0.4311
5090.00,0.4308
5089.00,0.4305
5088.00,0.4302
5087.00,0.4300
5086.00,0.4297
5085.00,0.4295
5084.00,0.4292
5083.00,0.4289
5082.00,0.4287
5081.00,0.4284
5080.00,0.4281
5079.00,0.4278
5078.00,0.4276
5077.00,0.4273
5076.00,0.4271
5075.00,0.4268
5074.00,0.4266
5073.00,0.4263
5072.00,0.4261
5071.00,0.4258
5070.00,0.4256
5069.00,0.4253
5068.00,0.4250
5067.00,0.4247
5066.00,0.4245
5065.00,0.4242
5064.00,0.4239
5063.00,0.4237
5062.00,0.4234
5061.00,0.4231
5060.00,0.4228
5059.00,0.4225
5058.00,0.4222
5057.00,0.4219
5056.00,0.4215
5055.00,0.4213
5054.00,0.4210
5053.00,0.4207
5052.00,0.4204
5051.00,0.4201
5050.00,0.4197
5049.00,0.4194
5048.00,0.4191
5047.00,0.4188
5046.00,0.4184
5045.00,0.4180
5044.00,0.4177
5043.00,0.4173
5042.00,0.4169
5041.00,0.4165
5040.00,0.4162
5039.00,0.4158
5038.00,0.4154
5037.00,0.4151
5036.00,0.4147
5035.00,0.4143
5034.00,0.4140
5033.00,0.4136
5032.00,0.4133
5031.00,0.4129
5030.00,0.4125
5029.00,0.4120
5028.00,0.4116
5027.00,0.4112
5026.00,0.4108
5025.00,0.4104
5024.00,0.4100
5023.00,0.4096
5022.00,0.4093
5021.00,0.4089
5020.00,0.4085
5019.00,0.4082
5018.00,0.4079
5017.00,0.4075
5016.00,0.4072
5015.00,0.4068
5014.00,0.4064
5013.00,0.4061
5012.00,0.4057
5011.00,0.4054
5010.00,0.4051
5009.00,0.4047
5008.00,0.4044
5007.00,0.4040
5006.00,0.4037
5005.00,0.4034
5004.00,0.4032
5003.00,0.4029
5002.00,0.4026
5001.00,0.4024
5000.00,0.4021
4999.00,0.4019
4998.00,0.4017
4997.00,0.4016
4996.00,0.4014
4995.00,0.4012
4994.00,0.4010
4993.00,0.4007
4992.00,0.4006
4991.00,0.4004
4990.00,0.4002
4989.00,0.4001
4988.00,0.3999
4987.00,0.3997
4986.00,0.3996
4985.00,0.3994
4984.00,0.3993
4983.00,0.3992
4982.00,0.3991
4981.00,0.3991
4980.00,0.3990
4979.00,0.3990
4978.00,0.3990
4977.00,0.3990
4976.00,0.3990
4975.00,0.3990
4974.00,0.3990
4973.00,0.3990
4972.00,0.3990
4971.00,0.3991
4970.00,0.3991
4969.00,0.3992
4968.00,0.3994
4967.00,0.3995
4966.00,0.3996
4965.00,0.3997
4964.00,0.3998
4963.00,0.4000
4962.00,0.4001
4961.00,0.4003
4960.00,0.4005
4959.00,0.4007
4958.00,0.4009
4957.00,0.4011
4956.00,0.4013
4955.00,0.4015
4954.00,0.4017
4953.00,0.4020
4952.00,0.4022
4951.00,0.4025
4950.00,0.4028
4949.00,0.4031
4948.00,0.4034
4947.00,0.4038
4946.00,0.4041
4945.00,0.4044
4944.00,0.4047
4943.00,0.4050
4942.00,0.4054
4941.00,0.4058
4940.00,0.4062
4939.00,0.4066
4938.00,0.4071
4937.00,0.4075
4936.00,0.4080
4935.00,0.4084
4934.00,0.4089
4933.00,0.4093
4932.00,0.4097
4931.00,0.4102
4930.00,0.4107
4929.00,0.4111
4928.00,0.4116
4927.00,0.4121
4926.00,0.4126
4925.00,0.4130
4924.00,0.4135
4923.00,0.4140
4922.00,0.4146
4921.00,0.4151
4920.00,0.4157
4919.00,0.4162
4918.00,0.4168
4917.00,0.4174
4916.00,0.4180
4915.00,0.4186
4914.00,0.4192
4913.00,0.4199
4912.00,0.4206
4911.00,0.4212
4910.00,0.4218
4909.00,0.4224
4908.00,0.4230
4907.00,0.4236
4906.00,0.4243
4905.00,0.4249
4904.00,0.4256
4903.00,0.4262
4902.00,0.4269
4901.00,0.4276
4900.00,0.4283
4899.00,0.4290
4898.00,0.4297
4897.00,0.4304
4896.00,0.4311
4895.00,0.4318
4894.00,0.4325
4893.00,0.4331
4892.00,0.4339
4891.00,0.4346
4890.00,0.4353
4889.00,0.4360
4888.00,0.4367
4887.00,0.4373
4886.00,0.4380
4885.00,0.4387
4884.00,0.4395
4883.00,0.4402
4882.00,0.4410
4881.00,0.4416
4880.00,0.4423
4879.00,0.4430
4878.00,0.4436
4877.00,0.4443
4876.00,0.4451
4875.00,0.4458
4874.00,0.4465
4873.00,0.4472
4872.00,0.4479
4871.00,0.4486
4870.00,0.4492
4869.00,0.4499
4868.00,0.4505
4867.00,0.4512
4866.00,0.4518
4865.00,0.4525
4864.00,0.4532
4863.00,0.4539
4862.00,0.4545
4861.00,0.4552
4860.00,0.4558
4859.00,0.4565
4858.00,0.4571
4857.00,0.4577
4856.00,0.4583
4855.00,0.4590
4854.00,0.4596
4853.00,0.4603
4852.00,0.4609
4851.00,0.4615
4850.00,0.4620
4849.00,0.4626
4848.00,0.4631
4847.00,0.4637
4846.00,0.4643
4845.00,0.4649
4844.00,0.4655
4843.00,0.4662
4842.00,0.4667
4841.00,0.4673
4840.00,0.4678
4839.00,0.4684
4838.00,0.4689
4837.00,0.4695
4836.00,0.4700
4835.00,0.4706
4834.00,0.4711
4833.00,0.4717
4832.00,0.4723
4831.00,0.4728
4830.00,0.4734
4829.00,0.4739
4828.00,0.4744
4827.00,0.4748
4826.00,0.4753
4825.00,0.4758
4824.00,0.4763
4823.00,0.4767
4822.00,0.4772
4821.00,0.4777
4820.00,0.4782
4819.00,0.4786
4818.00,0.4791
4817.00,0.4795
4816.00,0.4799
4815.00,0.4803
4814.00,0.4807
4813.00,0.4811
4812.00,0.4815
4811.00,0.4819
4810.00,0.4824
4809.00,0.4827
4808.00,0.4831
4807.00,0.4834
4806.00,0.4838
4805.00,0.4841
4804.00,0.4844
4803.00,0.4847
4802.00,0.4850
4801.00,0.4854
4800.00,0.4857
4799.00,0.4861
4798.00,0.4865
4797.00,0.4869
4796.00,0.4872
4795.00,0.4876
4794.00,0.4879
4793.00,0.4882
4792.00,0.4885
4791.00,0.4887
4790.00,0.4890
4789.00,0.4893
4788.00,0.4895
4787.00,0.4898
4786.00,0.4900
4785.00,0.4902
4784.00,0.4904
4783.00,0.4907
4782.00,0.4909
4781.00,0.4912
4780.00,0.4914
4779.00,0.4916
4778.00,0.4918
4777.00,0.4921
4776.00,0.4923
4775.00,0.4926
4774.00,0.4928
4773.00,0.4930
4772.00,0.4932
4771.00,0.4934
4770.00,0.4935
4769.00,0.4937
4768.00,0.4938
4767.00,0.4940
4766.00,0.4941
4765.00,0.4942
4764.00,0.4943
4763.00,0.4944
4762.00,0.4945
4761.00,0.4945
4760.00,0.4946
4759.00,0.4947
4758.00,0.4948
4757.00,0.4949
4756.00,0.4949
4755.00,0.4950
4754.00,0.4951
4753.00,0.4952
4752.00,0.4953
4751.00,0.4954
4750.00,0.4955
4749.00,0.4955
4748.00,0.4955
4747.00,0.4955
4746.00,0.4955
4745.00,0.4955
4744.00,0.4955
4743.00,0.4955
4742.00,0.4954
4741.00,0.4954
4740.00,0.4954
4739.00,0.4953
4738.00,0.4952
4737.00,0.4951
4736.00,0.4950
4735.00,0.4949
4734.00,0.4948
4733.00,0.4948
4732.00,0.4947
4731.00,0.4946
4730.00,0.4945
4729.00,0.4945
4728.00,0.4944
4727.00,0.4943
4726.00,0.4941
4725.00,0.4940
4724.00,0.4938
4723.00,0.4936
4722.00,0.4934
4721.00,0.4933
4720.00,0.4932
4719.00,0.4931
4718.00,0.4930
4717.00,0.4929
4716.00,0.4928
4715.00,0.4926
4714.00,0.4924
4713.00,0.4921
4712.00,0.4919
4711.00,0.4917
4710.00,0.4914
4709.00,0.4912
4708.00,0.4910
4707.00,0.4908
4706.00,0.4907
4705.00,0.4904
4704.00,0.4902
4703.00,0.4900
4702.00,0.4897
4701.00,0.4895
4700.00,0.4893
4699.00,0.4891
4698.00,0.4889
4697.00,0.4887
4696.00,0.4885
4695.00,0.4883
4694.00,0.4880
4693.00,0.4878
4692.00,0.4876
4691.00,0.4874
4690.00,0.4872
4689.00,0.4870
4688.00,0.4868
4687.00,0.4866
4686.00,0.4864
4685.00,0.4861
4684.00,0.4859
4683.00,0.4857
4682.00,0.4855
4681.00,0.4853
4680.00,0.4851
4679.00,0.4850
4678.00,0.4848
4677.00,0.4846
4676.00,0.4844
4675.00,0.4842
4674.00,0.4839
4673.00,0.4837
4672.00,0.4835
4671.00,0.4833
4670.00,0.4831
4669.00,0.4828
4668.00,0.4826
4667.00,0.4824
4666.00,0.4822
4665.00,0.4820
4664.00,0.4818
4663.00,0.4816
4662.00,0.4813
4661.00,0.4811
4660.00,0.4809
4659.00,0.4807
4658.00,0.4805
4657.00,0.4803
4656.00,0.4801
4655.00,0.4799
4654.00,0.4796
4653.00,0.4794
4652.00,0.4792
4651.00,0.4790
4650.00,0.4788
4649.00,0.4786
4648.00,0.4784
4647.00,0.4782
4646.00,0.4780
4645.00,0.4778
4644.00,0.4776
4643.00,0.4774
4642.00,0.4772
4641.00,0.4770
4640.00,0.4768
4639.00,0.4765
4638.00,0.4763
4637.00,0.4761
4636.00,0.4759
4635.00,0.4758
4634.00,0.4756
4633.00,0.4754
4632.00,0.4752
4631.00,0.4751
4630.00,0.4750
4629.00,0.4748
4628.00,0.4747
4627.00,0.4746
4626.00,0.4745
4625.00,0.4744
4624.00,0.4743
4623.00,0.4741
4622.00,0.4740
4621.00,0.4739
4620.00,0.4737
4619.00,0.4737
4618.00,0.4736
4617.00,0.4735
4616.00,0.4734
4615.00,0.4733
4614.00,0.4732
4613.00,0.4731
4612.00,0.4730
4611.00,0.4729
4610.00,0.4727
4609.00,0.4726
4608.00,0.4725
4607.00,0.4724
4606.00,0.4723
4605.00,0.4723
4604.00,0.4722
4603.00,0.4721
4602.00,0.4721
4601.00,0.4720
4600.00,0.4719
4599.00,0.4719
4598.00,0.4718
4597.00,0.4717
4596.00,0.4717
4595.00,0.4716
4594.00,0.4715
4593.00,0.4714
4592.00,0.4714
4591.00,0.4713
4590.00,0.4713
4589.00,0.4713
4588.00,0.4712
4587.00,0.4712
4586.00,0.4712
4585.00,0.4711
4584.00,0.4711
4583.00,0.4711
4582.00,0.4711
4581.00,0.4711
4580.00,0.4710
4579.00,0.4709
4578.00,0.4708
4577.00,0.4707
4576.00,0.4706
4575.00,0.4706
4574.00,0.4705
4573.00,0.4705
4572.00,0.4705
4571.00,0.4705
4570.00,0.4704
4569.00,0.4703
4568.00,0.4702
4567.00,0.4701
4566.00,0.4700
4565.00,0.4699
4564.00,0.4698
4563.00,0.4698
4562.00,0.4697
4561.00,0.4697
4560.00,0.4696
4559.00,0.4695
4558.00,0.4694
4557.00,0.4693
4556.00,0.4691
4555.00,0.4690
4554.00,0.4688
4553.00,0.4687
4552.00,0.4685
4551.00,0.4683
4550.00,0.4682
4549.00,0.4681
4548.00,0.4680
4547.00,0.4679
4546.00,0.4677
4545.00,0.4675
4544.00,0.4673
4543.00,0.4672
4542.00,0.4670
4541.00,0.4669
4540.00,0.4667
4539.00,0.4666
4538.00,0.4664
4537.00,0.4663
4536.00,0.4662
4535.00,0.4660
4534.00,0.4658
4533.00,0.4656
4532.00,0.4654
4531.00,0.4652
4530.00,0.4650
4529.00,0.4648
4528.00,0.4645
4527.00,0.4643
4526.00,0.4641
4525.00,0.4639
4524.00,0.4636
4523.00,0.4634
4522.00,0.4631
4521.00,0.4628
4520.00,0.4625
4519.00,0.4622
4518.00,0.4620
4517.00,0.4618
4516.00,0.4615
4515.00,0.4613
4514.00,0.4610
4513.00,0.4608
4512.00,0.4605
4511.00,0.4603
4510.00,0.4601
4509.00,0.4598
4508.00,0.4596
4507.00,0.4593
4506.00,0.4591
4505.00,0.4588
4504.00,0.4587
4503.00,0.4585
4502.00,0.4583
4501.00,0.4581
4500.00,0.4579
4499.00,0.4577
4498.00,0.4575
4497.00,0.4574
4496.00,0.4572
4495.00,0.4571
4494.00,0.4570
4493.00,0.4569
4492.00,0.4568
4491.00,0.4567
4490.00,0.4567
4489.00,0.4566
4488.00,0.4566
4487.00,0.4565
4486.00,0.4565
4485.00,0.4565
4484.00,0.4564
4483.00,0.4564
4482.00,0.4564
4481.00,0.4565
4480.00,0.4565
4479.00,0.4566
4478.00,0.4568
4477.00,0.4569
4476.00,0.4571
4475.00,0.4572
4474.00,0.4574
4473.00,0.4576
4472.00,0.4579
4471.00,0.4581
4470.00,0.4584
4469.00,0.4587
4468.00,0.4590
4467.00,0.4593
4466.00,0.4596
4465.00,0.4600
4464.00,0.4605
4463.00,0.4609
4462.00,0.4613
4461.00,0.4616
4460.00,0.4620
4459.00,0.4624
4458.00,0.4629
4457.00,0.4633
4456.00,0.4638
4455.00,0.4643
4454.00,0.4648
4453.00,0.4654
4452.00,0.4659
4451.00,0.4665
4450.00,0.4669
4449.00,0.4674
4448.00,0.4678
4447.00,0.4683
4446.00,0.4688
4445.00,0.4694
4444.00,0.4699
4443.00,0.4705
4442.00,0.4711
4441.00,0.4716
4440.00,0.4721
4439.00,0.4726
4438.00,0.4731
4437.00,0.4737
4436.00,0.4743
4435.00,0.4749
4434.00,0.4755
4433.00,0.4762
4432.00,0.4768
4431.00,0.4775
4430.00,0.4782
4429.00,0.4789
4428.00,0.4796
4427.00,0.4803
4426.00,0.4809
4425.00,0.4816
4424.00,0.4822
4423.00,0.4829
4422.00,0.4835
4421.00,0.4842
4420.00,0.4849
4419.00,0.4856
4418.00,0.4862
4417.00,0.4868
4416.00,0.4874
4415.00,0.4880
4414.00,0.4885
4413.00,0.4891
4412.00,0.4897
4411.00,0.4902
4410.00,0.4908
4409.00,0.4913
4408.00,0.4918
4407.00,0.4923
4406.00,0.4927
4405.00,0.4931
4404.00,0.4935
4403.00,0.4939
4402.00,0.4943
4401.00,0.4946
4400.00,0.4949
4399.00,0.4952
4398.00,0.4954
4397.00,0.4956
4396.00,0.4958
4395.00,0.4960
4394.00,0.4962
4393.00,0.4963
4392.00,0.4964
4391.00,0.4964
4390.00,0.4965
4389.00,0.4964
4388.00,0.4964
4387.00,0.4964
4386.00,0.4964
4385.00,0.4963
4384.00,0.4963
4383.00,0.4962
4382.00,0.4960
4381.00,0.4958
4380.00,0.4957
4379.00,0.4955
4378.00,0.4954
4377.00,0.4952
4376.00,0.4950
4375.00,0.4948
4374.00,0.4945
4373.00,0.4943
4372.00,0.4940
4371.00,0.4937
4370.00,0.4934
4369.00,0.4931
4368.00,0.4928
4367.00,0.4926
4366.00,0.4924
4365.00,0.4922
4364.00,0.4921
4363.00,0.4919
4362.00,0.4918
4361.00,0.4917
4360.00,0.4916
4359.00,0.4915
4358.00,0.4914
4357.00,0.4913
4356.00,0.4913
4355.00,0.4913
4354.00,0.4914
4353.00,0.4914
4352.00,0.4915
4351.00,0.4916
4350.00,0.4918
4349.00,0.4919
4348.00,0.4921
4347.00,0.4922
4346.00,0.4924
4345.00,0.4925
4344.00,0.4927
4343.00,0.4930
4342.00,0.4932
4341.00,0.4935
4340.00,0.4937
4339.00,0.4940
4338.00,0.4943
4337.00,0.4947
4336.00,0.4950
4335.00,0.4953
4334.00,0.4956
4333.00,0.4958
4332.00,0.4961
4331.00,0.4963
4330.00,0.4966
4329.00,0.4969
4328.00,0.4972
4327.00,0.4975
4326.00,0.4977
4325.00,0.4980
4324.00,0.4982
4323.00,0.4985
4322.00,0.4988
4321.00,0.4990
4320.00,0.4992
4319.00,0.4994
4318.00,0.4996
4317.00,0.4998
4316.00,0.5000
4315.00,0.5003
4314.00,0.5005
4313.00,0.5007
4312.00,0.5009
4311.00,0.5011
4310.00,0.5013
4309.00,0.5015
4308.00,0.5017
4307.00,0.5019
4306.00,0.5021
4305.00,0.5022
4304.00,0.5023
4303.00,0.5024
4302.00,0.5025
4301.00,0.5026
4300.00,0.5027
4299.00,0.5028
4298.00,0.5029
4297.00,0.5029
4296.00,0.5030
4295.00,0.5030
4294.00,0.5029
4293.00,0.5028
4292.00,0.5028
4291.00,0.5028
4290.00,0.5028
4289.00,0.5027
4288.00,0.5026
4287.00,0.5025
4286.00,0.5024
4285.00,0.5023
4284.00,0.5022
4283.00,0.5021
4282.00,0.5021
4281.00,0.5020
4280.00,0.5020
4279.00,0.5019
4278.00,0.5018
4277.00,0.5017
4276.00,0.5015
4275.00,0.5014
4274.00,0.5013
4273.00,0.5013
4272.00,0.5013
4271.00,0.5013
4270.00,0.5013
4269.00,0.5012
4268.00,0.5012
4267.00,0.5012
4266.00,0.5011
4265.00,0.5011
4264.00,0.5010
4263.00,0.5010
4262.00,0.5010
4261.00,0.5009
4260.00,0.5009
4259.00,0.5010
4258.00,0.5011
4257.00,0.5011
4256.00,0.5011
4255.00,0.5010
4254.00,0.5009
4253.00,0.5008
4252.00,0.5007
4251.00,0.5007
4250.00,0.5008
4249.00,0.5008
4248.00,0.5009
4247.00,0.5009
4246.00,0.5008
4245.00,0.5008
4244.00,0.5007
4243.00,0.5007
4242.00,0.5007
4241.00,0.5008
4240.00,0.5009
4239.00,0.5010
4238.00,0.5011
4237.00,0.5012
4236.00,0.5012
4235.00,0.5012
4234.00,0.5012
4233.00,0.5012
4232.00,0.5013
4231.00,0.5013
4230.00,0.5014
4229.00,0.5014
4228.00,0.5014
4227.00,0.5015
4226.00,0.5016
4225.00,0.5017
4224.00,0.5017
4223.00,0.5018
4222.00,0.5017
4221.00,0.5017
4220.00,0.5017
4219.00,0.5016
4218.00,0.5016
4217.00,0.5016
4216.00,0.5016
4215.00,0.5016
4214.00,0.5016
4213.00,0.5016
4212.00,0.5016
4211.00,0.5016
4210.00,0.5016
4209.00,0.5016
4208.00,0.5015
4207.00,0.5015
4206.00,0.5015
4205.00,0.5016
4204.00,0.5016
4203.00,0.5017
4202.00,0.5018
4201.00,0.5019
4200.00,0.5019
4199.00,0.5019
4198.00,0.5019
4197.00,0.5020
4196.00,0.5021
4195.00,0.5023
4194.00,0.5024
4193.00,0.5024
4192.00,0.5024
4191.00,0.5025
4190.00,0.5026
4189.00,0.5027
4188.00,0.5029
4187.00,0.5031
4186.00,0.5033
4185.00,0.5035
4184.00,0.5037
4183.00,0.5039
4182.00,0.5042
4181.00,0.5045
4180.00,0.5047
4179.00,0.5050
4178.00,0.5053
4177.00,0.5055
4176.00,0.5058
4175.00,0.5061
4174.00,0.5063
4173.00,0.5066
4172.00,0.5068
4171.00,0.5071
4170.00,0.5075
4169.00,0.5079
4168.00,0.5083
4167.00,0.5087
4166.00,0.5092
4165.00,0.5096
4164.00,0.5101
4163.00,0.5105
4162.00,0.5110
4161.00,0.5114
4160.00,0.5119
4159.00,0.5123
4158.00,0.5128
4157.00,0.5134
4156.00,0.5139
4155.00,0.5145
4154.00,0.5151
4153.00,0.5156
4152.00,0.5162
4151.00,0.5167
4150.00,0.5173
4149.00,0.5179
4148.00,0.5185
4147.00,0.5192
4146.00,0.5198
4145.00,0.5204
4144.00,0.5210
4143.00,0.5217
4142.00,0.5224
4141.00,0.5231
4140.00,0.5239
4139.00,0.5246
4138.00,0.5254
4137.00,0.5261
4136.00,0.5268
4135.00,0.5275
4134.00,0.5281
4133.00,0.5288
4132.00,0.5295
4131.00,0.5304
4130.00,0.5312
4129.00,0.5321
4128.00,0.5330
4127.00,0.5338
4126.00,0.5346
4125.00,0.5355
4124.00,0.5363
4123.00,0.5371
4122.00,0.5378
4121.00,0.5387
4120.00,0.5395
4119.00,0.5404
4118.00,0.5414
4117.00,0.5423
4116.00,0.5432
4115.00,0.5442
4114.00,0.5451
4113.00,0.5461
4112.00,0.5471
4111.00,0.5480
4110.00,0.5491
4109.00,0.5501
4108.00,0.5512
4107.00,0.5523
4106.00,0.5532
4105.00,0.5540
4104.00,0.5549
4103.00,0.5558
4102.00,0.5568
4101.00,0.5578
4100.00,0.5590
4099.00,0.5601
4098.00,0.5612
4097.00,0.5623
4096.00,0.5634
4095.00,0.5645
4094.00,0.5656
4093.00,0.5667
4092.00,0.5679
4091.00,0.5691
4090.00,0.5702
4089.00,0.5713
4088.00,0.5724
4087.00,0.5734
4086.00,0.5745
4085.00,0.5757
4084.00,0.5769
4083.00,0.5782
4082.00,0.5795
4081.00,0.5808
4080.00,0.5820
4079.00,0.5831
4078.00,0.5842
4077.00,0.5853
4076.00,0.5865
4075.00,0.5877
4074.00,0.5889
4073.00,0.5900
4072.00,0.5912
4071.00,0.5924
4070.00,0.5935
4069.00,0.5948
4068.00,0.5960
4067.00,0.5973
4066.00,0.5987
4065.00,0.6000
4064.00,0.6012
4063.00,0.6024
4062.00,0.6035
4061.00,0.6046
4060.00,0.6057
4059.00,0.6070
4058.00,0.6083
4057.00,0.6096
4056.00,0.6108
4055.00,0.6120
4054.00,0.6131
4053.00,0.6142
4052.00,0.6153
4051.00,0.6163
4050.00,0.6174
4049.00,0.6185
4048.00,0.6197
4047.00,0.6210
4046.00,0.6223
4045.00,0.6234
4044.00,0.6243
4043.00,0.6252
4042.00,0.6260
4041.00,0.6270
4040.00,0.6280
4039.00,0.6291
4038.00,0.6301
4037.00,0.6311
4036.00,0.6320
4035.00,0.6330
4034.00,0.6339
4033.00,0.6347
4032.00,0.6356
4031.00,0.6364
4030.00,0.6373
4029.00,0.6381
4028.00,0.6389
4027.00,0.6397
4026.00,0.6403
4025.00,0.6408
4024.00,0.6413
4023.00,0.6418
4022.00,0.6425
4021.00,0.6432
4020.00,0.6438
4019.00,0.6443
4018.00,0.6446
4017.00,0.6448
4016.00,0.6451
4015.00,0.6454
4014.00,0.6457
4013.00,0.6460
4012.00,0.6463
4011.00,0.6466
4010.00,0.6467
4009.00,0.6467
4008.00,0.6465
4007.00,0.6463
4006.00,0.6463
4005.00,0.6463
4004.00,0.6462
4003.00,0.6461
4002.00,0.6459
4001.00,0.6458
4000.00,0.6458
   㕕侱�
♼⠨⚚