Created As ASCII File,样品 070 用户 Administrator 日期 星期三, 四月 21 2021
cm-1,A
12000.00,0.2017
11999.00,0.2016
11998.00,0.2013
11997.00,0.2011
11996.00,0.2010
11995.00,0.2010
11994.00,0.2009
11993.00,0.2008
11992.00,0.2008
11991.00,0.2007
11990.00,0.2008
11989.00,0.2009
11988.00,0.2011
11987.00,0.2013
11986.00,0.2015
11985.00,0.2017
11984.00,0.2019
11983.00,0.2020
11982.00,0.2021
11981.00,0.2022
11980.00,0.2021
11979.00,0.2020
11978.00,0.2017
11977.00,0.2015
11976.00,0.2012
11975.00,0.2011
11974.00,0.2010
11973.00,0.2010
11972.00,0.2011
11971.00,0.2011
11970.00,0.2011
11969.00,0.2009
11968.00,0.2007
11967.00,0.2005
11966.00,0.2004
11965.00,0.2005
11964.00,0.2008
11963.00,0.2011
11962.00,0.2013
11961.00,0.2014
11960.00,0.2012
11959.00,0.2010
11958.00,0.2008
11957.00,0.2007
11956.00,0.2007
11955.00,0.2009
11954.00,0.2011
11953.00,0.2011
11952.00,0.2011
11951.00,0.2009
11950.00,0.2007
11949.00,0.2006
11948.00,0.2004
11947.00,0.2002
11946.00,0.2002
11945.00,0.2003
11944.00,0.2006
11943.00,0.2010
11942.00,0.2014
11941.00,0.2016
11940.00,0.2014
11939.00,0.2009
11938.00,0.2004
11937.00,0.2001
11936.00,0.2002
11935.00,0.2007
11934.00,0.2014
11933.00,0.2018
11932.00,0.2017
11931.00,0.2013
11930.00,0.2008
11929.00,0.2005
11928.00,0.2007
11927.00,0.2013
11926.00,0.2020
11925.00,0.2024
11924.00,0.2024
11923.00,0.2020
11922.00,0.2017
11921.00,0.2016
11920.00,0.2020
11919.00,0.2025
11918.00,0.2028
11917.00,0.2028
11916.00,0.2023
11915.00,0.2017
11914.00,0.2012
11913.00,0.2011
11912.00,0.2014
11911.00,0.2017
11910.00,0.2018
11909.00,0.2016
11908.00,0.2010
11907.00,0.2005
11906.00,0.2002
11905.00,0.2003
11904.00,0.2006
11903.00,0.2010
11902.00,0.2013
11901.00,0.2013
11900.00,0.2012
11899.00,0.2012
11898.00,0.2013
11897.00,0.2016
11896.00,0.2018
11895.00,0.2020
11894.00,0.2019
11893.00,0.2019
11892.00,0.2018
11891.00,0.2018
11890.00,0.2019
11889.00,0.2019
11888.00,0.2017
11887.00,0.2014
11886.00,0.2011
11885.00,0.2009
11884.00,0.2010
11883.00,0.2013
11882.00,0.2016
11881.00,0.2017
11880.00,0.2017
11879.00,0.2015
11878.00,0.2014
11877.00,0.2015
11876.00,0.2018
11875.00,0.2022
11874.00,0.2025
11873.00,0.2026
11872.00,0.2025
11871.00,0.2023
11870.00,0.2021
11869.00,0.2021
11868.00,0.2021
11867.00,0.2023
11866.00,0.2025
11865.00,0.2027
11864.00,0.2028
11863.00,0.2029
11862.00,0.2029
11861.00,0.2029
11860.00,0.2027
11859.00,0.2025
11858.00,0.2023
11857.00,0.2022
11856.00,0.2022
11855.00,0.2024
11854.00,0.2026
11853.00,0.2026
11852.00,0.2026
11851.00,0.2025
11850.00,0.2024
11849.00,0.2025
11848.00,0.2026
11847.00,0.2028
11846.00,0.2027
11845.00,0.2024
11844.00,0.2019
11843.00,0.2014
11842.00,0.2010
11841.00,0.2010
11840.00,0.2012
11839.00,0.2016
11838.00,0.2018
11837.00,0.2019
11836.00,0.2017
11835.00,0.2016
11834.00,0.2017
11833.00,0.2020
11832.00,0.2025
11831.00,0.2029
11830.00,0.2031
11829.00,0.2031
11828.00,0.2027
11827.00,0.2024
11826.00,0.2021
11825.00,0.2019
11824.00,0.2019
11823.00,0.2018
11822.00,0.2017
11821.00,0.2015
11820.00,0.2014
11819.00,0.2015
11818.00,0.2016
11817.00,0.2018
11816.00,0.2020
11815.00,0.2020
11814.00,0.2021
11813.00,0.2022
11812.00,0.2025
11811.00,0.2029
11810.00,0.2032
11809.00,0.2033
11808.00,0.2032
11807.00,0.2029
11806.00,0.2026
11805.00,0.2025
11804.00,0.2026
11803.00,0.2027
11802.00,0.2026
11801.00,0.2022
11800.00,0.2017
11799.00,0.2012
11798.00,0.2010
11797.00,0.2011
11796.00,0.2016
11795.00,0.2021
11794.00,0.2024
11793.00,0.2024
11792.00,0.2023
11791.00,0.2023
11790.00,0.2026
11789.00,0.2030
11788.00,0.2036
11787.00,0.2040
11786.00,0.2041
11785.00,0.2040
11784.00,0.2038
11783.00,0.2036
11782.00,0.2034
11781.00,0.2032
11780.00,0.2031
11779.00,0.2030
11778.00,0.2029
11777.00,0.2028
11776.00,0.2026
11775.00,0.2025
11774.00,0.2023
11773.00,0.2020
11772.00,0.2018
11771.00,0.2016
11770.00,0.2017
11769.00,0.2019
11768.00,0.2020
11767.00,0.2020
11766.00,0.2019
11765.00,0.2017
11764.00,0.2015
11763.00,0.2016
11762.00,0.2020
11761.00,0.2024
11760.00,0.2027
11759.00,0.2028
11758.00,0.2027
11757.00,0.2023
11756.00,0.2020
11755.00,0.2018
11754.00,0.2018
11753.00,0.2018
11752.00,0.2020
11751.00,0.2021
11750.00,0.2021
11749.00,0.2021
11748.00,0.2020
11747.00,0.2019
11746.00,0.2018
11745.00,0.2018
11744.00,0.2020
11743.00,0.2023
11742.00,0.2028
11741.00,0.2031
11740.00,0.2032
11739.00,0.2031
11738.00,0.2027
11737.00,0.2023
11736.00,0.2021
11735.00,0.2022
11734.00,0.2026
11733.00,0.2031
11732.00,0.2035
11731.00,0.2037
11730.00,0.2036
11729.00,0.2033
11728.00,0.2031
11727.00,0.2030
11726.00,0.2031
11725.00,0.2034
11724.00,0.2038
11723.00,0.2040
11722.00,0.2040
11721.00,0.2037
11720.00,0.2032
11719.00,0.2027
11718.00,0.2025
11717.00,0.2026
11716.00,0.2031
11715.00,0.2036
11714.00,0.2040
11713.00,0.2040
11712.00,0.2036
11711.00,0.2031
11710.00,0.2026
11709.00,0.2023
11708.00,0.2022
11707.00,0.2023
11706.00,0.2024
11705.00,0.2023
11704.00,0.2021
11703.00,0.2018
11702.00,0.2016
11701.00,0.2014
11700.00,0.2014
11699.00,0.2014
11698.00,0.2015
11697.00,0.2018
11696.00,0.2020
11695.00,0.2023
11694.00,0.2025
11693.00,0.2025
11692.00,0.2024
11691.00,0.2024
11690.00,0.2024
11689.00,0.2025
11688.00,0.2026
11687.00,0.2026
11686.00,0.2024
11685.00,0.2021
11684.00,0.2018
11683.00,0.2017
11682.00,0.2018
11681.00,0.2021
11680.00,0.2024
11679.00,0.2025
11678.00,0.2025
11677.00,0.2023
11676.00,0.2023
11675.00,0.2023
11674.00,0.2023
11673.00,0.2024
11672.00,0.2025
11671.00,0.2025
11670.00,0.2025
11669.00,0.2026
11668.00,0.2027
11667.00,0.2029
11666.00,0.2030
11665.00,0.2029
11664.00,0.2028
11663.00,0.2028
11662.00,0.2029
11661.00,0.2031
11660.00,0.2034
11659.00,0.2035
11658.00,0.2035
11657.00,0.2032
11656.00,0.2027
11655.00,0.2023
11654.00,0.2021
11653.00,0.2021
11652.00,0.2021
11651.00,0.2022
11650.00,0.2022
11649.00,0.2021
11648.00,0.2021
11647.00,0.2022
11646.00,0.2025
11645.00,0.2028
11644.00,0.2031
11643.00,0.2032
11642.00,0.2032
11641.00,0.2031
11640.00,0.2030
11639.00,0.2029
11638.00,0.2029
11637.00,0.2029
11636.00,0.2029
11635.00,0.2028
11634.00,0.2026
11633.00,0.2023
11632.00,0.2020
11631.00,0.2018
11630.00,0.2017
11629.00,0.2017
11628.00,0.2019
11627.00,0.2022
11626.00,0.2024
11625.00,0.2026
11624.00,0.2026
11623.00,0.2025
11622.00,0.2024
11621.00,0.2026
11620.00,0.2030
11619.00,0.2035
11618.00,0.2039
11617.00,0.2040
11616.00,0.2039
11615.00,0.2035
11614.00,0.2031
11613.00,0.2029
11612.00,0.2029
11611.00,0.2029
11610.00,0.2029
11609.00,0.2026
11608.00,0.2022
11607.00,0.2019
11606.00,0.2017
11605.00,0.2018
11604.00,0.2019
11603.00,0.2021
11602.00,0.2021
11601.00,0.2021
11600.00,0.2021
11599.00,0.2023
11598.00,0.2027
11597.00,0.2030
11596.00,0.2033
11595.00,0.2033
11594.00,0.2031
11593.00,0.2029
11592.00,0.2028
11591.00,0.2028
11590.00,0.2029
11589.00,0.2030
11588.00,0.2031
11587.00,0.2031
11586.00,0.2030
11585.00,0.2029
11584.00,0.2029
11583.00,0.2030
11582.00,0.2032
11581.00,0.2034
11580.00,0.2035
11579.00,0.2035
11578.00,0.2033
11577.00,0.2032
11576.00,0.2031
11575.00,0.2030
11574.00,0.2031
11573.00,0.2032
11572.00,0.2032
11571.00,0.2031
11570.00,0.2028
11569.00,0.2026
11568.00,0.2024
11567.00,0.2025
11566.00,0.2026
11565.00,0.2027
11564.00,0.2027
11563.00,0.2026
11562.00,0.2024
11561.00,0.2024
11560.00,0.2026
11559.00,0.2029
11558.00,0.2032
11557.00,0.2034
11556.00,0.2034
11555.00,0.2033
11554.00,0.2032
11553.00,0.2031
11552.00,0.2032
11551.00,0.2033
11550.00,0.2033
11549.00,0.2031
11548.00,0.2026
11547.00,0.2022
11546.00,0.2020
11545.00,0.2020
11544.00,0.2023
11543.00,0.2027
11542.00,0.2031
11541.00,0.2033
11540.00,0.2034
11539.00,0.2034
11538.00,0.2034
11537.00,0.2035
11536.00,0.2036
11535.00,0.2037
11534.00,0.2037
11533.00,0.2035
11532.00,0.2033
11531.00,0.2031
11530.00,0.2029
11529.00,0.2027
11528.00,0.2026
11527.00,0.2025
11526.00,0.2025
11525.00,0.2025
11524.00,0.2027
11523.00,0.2030
11522.00,0.2033
11521.00,0.2035
11520.00,0.2035
11519.00,0.2034
11518.00,0.2032
11517.00,0.2031
11516.00,0.2031
11515.00,0.2032
11514.00,0.2034
11513.00,0.2035
11512.00,0.2034
11511.00,0.2032
11510.00,0.2029
11509.00,0.2026
11508.00,0.2026
11507.00,0.2026
11506.00,0.2027
11505.00,0.2026
11504.00,0.2025
11503.00,0.2024
11502.00,0.2023
11501.00,0.2024
11500.00,0.2025
11499.00,0.2025
11498.00,0.2025
11497.00,0.2023
11496.00,0.2022
11495.00,0.2023
11494.00,0.2027
11493.00,0.2031
11492.00,0.2035
11491.00,0.2037
11490.00,0.2036
11489.00,0.2035
11488.00,0.2034
11487.00,0.2035
11486.00,0.2038
11485.00,0.2041
11484.00,0.2042
11483.00,0.2040
11482.00,0.2037
11481.00,0.2033
11480.00,0.2030
11479.00,0.2029
11478.00,0.2028
11477.00,0.2027
11476.00,0.2027
11475.00,0.2027
11474.00,0.2029
11473.00,0.2031
11472.00,0.2033
11471.00,0.2035
11470.00,0.2035
11469.00,0.2034
11468.00,0.2032
11467.00,0.2031
11466.00,0.2031
11465.00,0.2031
11464.00,0.2031
11463.00,0.2031
11462.00,0.2032
11461.00,0.2033
11460.00,0.2034
11459.00,0.2036
11458.00,0.2036
11457.00,0.2036
11456.00,0.2035
11455.00,0.2033
11454.00,0.2033
11453.00,0.2032
11452.00,0.2032
11451.00,0.2030
11450.00,0.2028
11449.00,0.2025
11448.00,0.2022
11447.00,0.2021
11446.00,0.2022
11445.00,0.2024
11444.00,0.2026
11443.00,0.2028
11442.00,0.2029
11441.00,0.2029
11440.00,0.2030
11439.00,0.2031
11438.00,0.2033
11437.00,0.2035
11436.00,0.2036
11435.00,0.2036
11434.00,0.2036
11433.00,0.2035
11432.00,0.2034
11431.00,0.2033
11430.00,0.2034
11429.00,0.2035
11428.00,0.2038
11427.00,0.2040
11426.00,0.2041
11425.00,0.2040
11424.00,0.2039
11423.00,0.2037
11422.00,0.2036
11421.00,0.2036
11420.00,0.2037
11419.00,0.2036
11418.00,0.2034
11417.00,0.2030
11416.00,0.2027
11415.00,0.2026
11414.00,0.2028
11413.00,0.2032
11412.00,0.2034
11411.00,0.2035
11410.00,0.2032
11409.00,0.2029
11408.00,0.2026
11407.00,0.2027
11406.00,0.2030
11405.00,0.2034
11404.00,0.2037
11403.00,0.2037
11402.00,0.2035
11401.00,0.2032
11400.00,0.2030
11399.00,0.2031
11398.00,0.2033
11397.00,0.2035
11396.00,0.2036
11395.00,0.2036
11394.00,0.2035
11393.00,0.2035
11392.00,0.2034
11391.00,0.2034
11390.00,0.2034
11389.00,0.2033
11388.00,0.2031
11387.00,0.2029
11386.00,0.2029
11385.00,0.2028
11384.00,0.2029
11383.00,0.2030
11382.00,0.2031
11381.00,0.2032
11380.00,0.2032
11379.00,0.2032
11378.00,0.2033
11377.00,0.2034
11376.00,0.2035
11375.00,0.2037
11374.00,0.2037
11373.00,0.2037
11372.00,0.2037
11371.00,0.2036
11370.00,0.2036
11369.00,0.2036
11368.00,0.2038
11367.00,0.2038
11366.00,0.2037
11365.00,0.2034
11364.00,0.2030
11363.00,0.2026
11362.00,0.2024
11361.00,0.2024
11360.00,0.2026
11359.00,0.2029
11358.00,0.2030
11357.00,0.2028
11356.00,0.2026
11355.00,0.2025
11354.00,0.2026
11353.00,0.2028
11352.00,0.2032
11351.00,0.2036
11350.00,0.2037
11349.00,0.2036
11348.00,0.2033
11347.00,0.2031
11346.00,0.2030
11345.00,0.2031
11344.00,0.2032
11343.00,0.2033
11342.00,0.2033
11341.00,0.2033
11340.00,0.2031
11339.00,0.2030
11338.00,0.2029
11337.00,0.2029
11336.00,0.2030
11335.00,0.2033
11334.00,0.2035
11333.00,0.2038
11332.00,0.2040
11331.00,0.2040
11330.00,0.2040
11329.00,0.2040
11328.00,0.2040
11327.00,0.2041
11326.00,0.2042
11325.00,0.2044
11324.00,0.2044
11323.00,0.2044
11322.00,0.2044
11321.00,0.2043
11320.00,0.2043
11319.00,0.2042
11318.00,0.2041
11317.00,0.2039
11316.00,0.2036
11315.00,0.2035
11314.00,0.2035
11313.00,0.2036
11312.00,0.2037
11311.00,0.2037
11310.00,0.2034
11309.00,0.2030
11308.00,0.2027
11307.00,0.2025
11306.00,0.2025
11305.00,0.2028
11304.00,0.2031
11303.00,0.2031
11302.00,0.2030
11301.00,0.2027
11300.00,0.2025
11299.00,0.2025
11298.00,0.2027
11297.00,0.2031
11296.00,0.2036
11295.00,0.2039
11294.00,0.2039
11293.00,0.2038
11292.00,0.2036
11291.00,0.2034
11290.00,0.2035
11289.00,0.2038
11288.00,0.2041
11287.00,0.2042
11286.00,0.2041
11285.00,0.2037
11284.00,0.2033
11283.00,0.2030
11282.00,0.2029
11281.00,0.2031
11280.00,0.2034
11279.00,0.2035
11278.00,0.2034
11277.00,0.2031
11276.00,0.2028
11275.00,0.2028
11274.00,0.2031
11273.00,0.2035
11272.00,0.2040
11271.00,0.2043
11270.00,0.2045
11269.00,0.2046
11268.00,0.2046
11267.00,0.2047
11266.00,0.2047
11265.00,0.2048
11264.00,0.2047
11263.00,0.2045
11262.00,0.2043
11261.00,0.2041
11260.00,0.2038
11259.00,0.2035
11258.00,0.2032
11257.00,0.2029
11256.00,0.2027
11255.00,0.2027
11254.00,0.2028
11253.00,0.2030
11252.00,0.2031
11251.00,0.2031
11250.00,0.2031
11249.00,0.2031
11248.00,0.2033
11247.00,0.2036
11246.00,0.2039
11245.00,0.2042
11244.00,0.2043
11243.00,0.2042
11242.00,0.2041
11241.00,0.2040
11240.00,0.2038
11239.00,0.2037
11238.00,0.2035
11237.00,0.2033
11236.00,0.2032
11235.00,0.2031
11234.00,0.2031
11233.00,0.2031
11232.00,0.2031
11231.00,0.2031
11230.00,0.2032
11229.00,0.2033
11228.00,0.2036
11227.00,0.2038
11226.00,0.2041
11225.00,0.2042
11224.00,0.2042
11223.00,0.2041
11222.00,0.2041
11221.00,0.2040
11220.00,0.2039
11219.00,0.2038
11218.00,0.2036
11217.00,0.2034
11216.00,0.2033
11215.00,0.2033
11214.00,0.2035
11213.00,0.2037
11212.00,0.2039
11211.00,0.2039
11210.00,0.2039
11209.00,0.2039
11208.00,0.2039
11207.00,0.2041
11206.00,0.2043
11205.00,0.2044
11204.00,0.2045
11203.00,0.2045
11202.00,0.2044
11201.00,0.2043
11200.00,0.2042
11199.00,0.2040
11198.00,0.2039
11197.00,0.2039
11196.00,0.2040
11195.00,0.2042
11194.00,0.2043
11193.00,0.2043
11192.00,0.2041
11191.00,0.2039
11190.00,0.2036
11189.00,0.2035
11188.00,0.2036
11187.00,0.2037
11186.00,0.2037
11185.00,0.2037
11184.00,0.2035
11183.00,0.2034
11182.00,0.2033
11181.00,0.2034
11180.00,0.2035
11179.00,0.2035
11178.00,0.2035
11177.00,0.2033
11176.00,0.2032
11175.00,0.2031
11174.00,0.2032
11173.00,0.2034
11172.00,0.2035
11171.00,0.2037
11170.00,0.2037
11169.00,0.2037
11168.00,0.2037
11167.00,0.2039
11166.00,0.2041
11165.00,0.2044
11164.00,0.2046
11163.00,0.2047
11162.00,0.2047
11161.00,0.2045
11160.00,0.2044
11159.00,0.2043
11158.00,0.2042
11157.00,0.2042
11156.00,0.2042
11155.00,0.2041
11154.00,0.2039
11153.00,0.2038
11152.00,0.2037
11151.00,0.2037
11150.00,0.2036
11149.00,0.2035
11148.00,0.2034
11147.00,0.2034
11146.00,0.2035
11145.00,0.2038
11144.00,0.2041
11143.00,0.2043
11142.00,0.2042
11141.00,0.2039
11140.00,0.2035
11139.00,0.2033
11138.00,0.2034
11137.00,0.2037
11136.00,0.2040
11135.00,0.2042
11134.00,0.2041
11133.00,0.2038
11132.00,0.2036
11131.00,0.2035
11130.00,0.2037
11129.00,0.2040
11128.00,0.2043
11127.00,0.2045
11126.00,0.2046
11125.00,0.2046
11124.00,0.2045
11123.00,0.2044
11122.00,0.2042
11121.00,0.2040
11120.00,0.2039
11119.00,0.2038
11118.00,0.2039
11117.00,0.2041
11116.00,0.2043
11115.00,0.2043
11114.00,0.2042
11113.00,0.2039
11112.00,0.2038
11111.00,0.2038
11110.00,0.2040
11109.00,0.2043
11108.00,0.2045
11107.00,0.2044
11106.00,0.2042
11105.00,0.2039
11104.00,0.2036
11103.00,0.2036
11102.00,0.2038
11101.00,0.2041
11100.00,0.2042
11099.00,0.2042
11098.00,0.2042
11097.00,0.2041
11096.00,0.2042
11095.00,0.2044
11094.00,0.2047
11093.00,0.2050
11092.00,0.2050
11091.00,0.2049
11090.00,0.2046
11089.00,0.2044
11088.00,0.2044
11087.00,0.2044
11086.00,0.2045
11085.00,0.2045
11084.00,0.2044
11083.00,0.2042
11082.00,0.2041
11081.00,0.2040
11080.00,0.2040
11079.00,0.2039
11078.00,0.2039
11077.00,0.2038
11076.00,0.2037
11075.00,0.2037
11074.00,0.2038
11073.00,0.2039
11072.00,0.2039
11071.00,0.2039
11070.00,0.2039
11069.00,0.2040
11068.00,0.2041
11067.00,0.2042
11066.00,0.2043
11065.00,0.2043
11064.00,0.2043
11063.00,0.2043
11062.00,0.2045
11061.00,0.2048
11060.00,0.2052
11059.00,0.2054
11058.00,0.2055
11057.00,0.2054
11056.00,0.2053
11055.00,0.2051
11054.00,0.2051
11053.00,0.2051
11052.00,0.2052
11051.00,0.2051
11050.00,0.2049
11049.00,0.2046
11048.00,0.2043
11047.00,0.2041
11046.00,0.2040
11045.00,0.2040
11044.00,0.2040
11043.00,0.2042
11042.00,0.2043
11041.00,0.2044
11040.00,0.2046
11039.00,0.2047
11038.00,0.2047
11037.00,0.2047
11036.00,0.2045
11035.00,0.2043
11034.00,0.2042
11033.00,0.2041
11032.00,0.2042
11031.00,0.2044
11030.00,0.2046
11029.00,0.2048
11028.00,0.2048
11027.00,0.2047
11026.00,0.2045
11025.00,0.2043
11024.00,0.2041
11023.00,0.2041
11022.00,0.2043
11021.00,0.2046
11020.00,0.2048
11019.00,0.2048
11018.00,0.2045
11017.00,0.2042
11016.00,0.2038
11015.00,0.2037
11014.00,0.2038
11013.00,0.2041
11012.00,0.2045
11011.00,0.2047
11010.00,0.2047
11009.00,0.2046
11008.00,0.2045
11007.00,0.2045
11006.00,0.2046
11005.00,0.2046
11004.00,0.2046
11003.00,0.2045
11002.00,0.2043
11001.00,0.2043
11000.00,0.2043
10999.00,0.2044
10998.00,0.2044
10997.00,0.2044
10996.00,0.2043
10995.00,0.2042
10994.00,0.2043
10993.00,0.2045
10992.00,0.2046
10991.00,0.2046
10990.00,0.2045
10989.00,0.2043
10988.00,0.2041
10987.00,0.2040
10986.00,0.2039
10985.00,0.2038
10984.00,0.2038
10983.00,0.2037
10982.00,0.2037
10981.00,0.2037
10980.00,0.2040
10979.00,0.2043
10978.00,0.2046
10977.00,0.2047
10976.00,0.2047
10975.00,0.2045
10974.00,0.2045
10973.00,0.2046
10972.00,0.2048
10971.00,0.2050
10970.00,0.2051
10969.00,0.2050
10968.00,0.2048
10967.00,0.2045
10966.00,0.2043
10965.00,0.2043
10964.00,0.2044
10963.00,0.2046
10962.00,0.2047
10961.00,0.2046
10960.00,0.2044
10959.00,0.2042
10958.00,0.2040
10957.00,0.2039
10956.00,0.2040
10955.00,0.2042
10954.00,0.2045
10953.00,0.2047
10952.00,0.2049
10951.00,0.2048
10950.00,0.2047
10949.00,0.2046
10948.00,0.2046
10947.00,0.2049
10946.00,0.2052
10945.00,0.2053
10944.00,0.2052
10943.00,0.2048
10942.00,0.2044
10941.00,0.2040
10940.00,0.2040
10939.00,0.2042
10938.00,0.2044
10937.00,0.2044
10936.00,0.2042
10935.00,0.2039
10934.00,0.2038
10933.00,0.2040
10932.00,0.2044
10931.00,0.2048
10930.00,0.2050
10929.00,0.2050
10928.00,0.2049
10927.00,0.2048
10926.00,0.2049
10925.00,0.2051
10924.00,0.2052
10923.00,0.2051
10922.00,0.2049
10921.00,0.2047
10920.00,0.2047
10919.00,0.2048
10918.00,0.2050
10917.00,0.2050
10916.00,0.2049
10915.00,0.2046
10914.00,0.2044
10913.00,0.2044
10912.00,0.2046
10911.00,0.2048
10910.00,0.2049
10909.00,0.2049
10908.00,0.2048
10907.00,0.2046
10906.00,0.2045
10905.00,0.2044
10904.00,0.2043
10903.00,0.2043
10902.00,0.2043
10901.00,0.2042
10900.00,0.2041
10899.00,0.2040
10898.00,0.2038
10897.00,0.2035
10896.00,0.2034
10895.00,0.2035
10894.00,0.2036
10893.00,0.2038
10892.00,0.2040
10891.00,0.2041
10890.00,0.2041
10889.00,0.2041
10888.00,0.2042
10887.00,0.2042
10886.00,0.2042
10885.00,0.2040
10884.00,0.2037
10883.00,0.2036
10882.00,0.2036
10881.00,0.2037
10880.00,0.2039
10879.00,0.2040
10878.00,0.2039
10877.00,0.2037
10876.00,0.2036
10875.00,0.2035
10874.00,0.2037
10873.00,0.2040
10872.00,0.2044
10871.00,0.2047
10870.00,0.2048
10869.00,0.2048
10868.00,0.2046
10867.00,0.2043
10866.00,0.2041
10865.00,0.2040
10864.00,0.2041
10863.00,0.2042
10862.00,0.2043
10861.00,0.2043
10860.00,0.2042
10859.00,0.2040
10858.00,0.2039
10857.00,0.2039
10856.00,0.2040
10855.00,0.2041
10854.00,0.2042
10853.00,0.2044
10852.00,0.2046
10851.00,0.2049
10850.00,0.2050
10849.00,0.2050
10848.00,0.2049
10847.00,0.2048
10846.00,0.2047
10845.00,0.2047
10844.00,0.2047
10843.00,0.2047
10842.00,0.2046
10841.00,0.2044
10840.00,0.2043
10839.00,0.2042
10838.00,0.2042
10837.00,0.2041
10836.00,0.2040
10835.00,0.2037
10834.00,0.2035
10833.00,0.2034
10832.00,0.2035
10831.00,0.2037
10830.00,0.2039
10829.00,0.2038
10828.00,0.2036
10827.00,0.2034
10826.00,0.2034
10825.00,0.2034
10824.00,0.2036
10823.00,0.2037
10822.00,0.2038
10821.00,0.2038
10820.00,0.2038
10819.00,0.2038
10818.00,0.2039
10817.00,0.2038
10816.00,0.2038
10815.00,0.2039
10814.00,0.2039
10813.00,0.2040
10812.00,0.2041
10811.00,0.2040
10810.00,0.2039
10809.00,0.2037
10808.00,0.2035
10807.00,0.2035
10806.00,0.2036
10805.00,0.2037
10804.00,0.2038
10803.00,0.2039
10802.00,0.2039
10801.00,0.2040
10800.00,0.2041
10799.00,0.2043
10798.00,0.2043
10797.00,0.2043
10796.00,0.2043
10795.00,0.2043
10794.00,0.2043
10793.00,0.2042
10792.00,0.2040
10791.00,0.2038
10790.00,0.2037
10789.00,0.2037
10788.00,0.2038
10787.00,0.2039
10786.00,0.2040
10785.00,0.2040
10784.00,0.2039
10783.00,0.2039
10782.00,0.2041
10781.00,0.2042
10780.00,0.2043
10779.00,0.2042
10778.00,0.2040
10777.00,0.2038
10776.00,0.2038
10775.00,0.2039
10774.00,0.2040
10773.00,0.2042
10772.00,0.2042
10771.00,0.2040
10770.00,0.2039
10769.00,0.2039
10768.00,0.2041
10767.00,0.2044
10766.00,0.2046
10765.00,0.2046
10764.00,0.2045
10763.00,0.2043
10762.00,0.2042
10761.00,0.2042
10760.00,0.2041
10759.00,0.2040
10758.00,0.2038
10757.00,0.2036
10756.00,0.2034
10755.00,0.2034
10754.00,0.2034
10753.00,0.2035
10752.00,0.2036
10751.00,0.2036
10750.00,0.2036
10749.00,0.2036
10748.00,0.2037
10747.00,0.2038
10746.00,0.2039
10745.00,0.2041
10744.00,0.2042
10743.00,0.2043
10742.00,0.2043
10741.00,0.2042
10740.00,0.2041
10739.00,0.2040
10738.00,0.2040
10737.00,0.2041
10736.00,0.2042
10735.00,0.2041
10734.00,0.2040
10733.00,0.2039
10732.00,0.2039
10731.00,0.2041
10730.00,0.2043
10729.00,0.2044
10728.00,0.2044
10727.00,0.2042
10726.00,0.2039
10725.00,0.2037
10724.00,0.2036
10723.00,0.2036
10722.00,0.2036
10721.00,0.2035
10720.00,0.2034
10719.00,0.2033
10718.00,0.2032
10717.00,0.2032
10716.00,0.2033
10715.00,0.2034
10714.00,0.2036
10713.00,0.2038
10712.00,0.2040
10711.00,0.2042
10710.00,0.2042
10709.00,0.2042
10708.00,0.2041
10707.00,0.2040
10706.00,0.2039
10705.00,0.2040
10704.00,0.2041
10703.00,0.2042
10702.00,0.2042
10701.00,0.2043
10700.00,0.2044
10699.00,0.2045
10698.00,0.2045
10697.00,0.2045
10696.00,0.2043
10695.00,0.2041
10694.00,0.2039
10693.00,0.2039
10692.00,0.2039
10691.00,0.2039
10690.00,0.2039
10689.00,0.2038
10688.00,0.2037
10687.00,0.2037
10686.00,0.2038
10685.00,0.2040
10684.00,0.2042
10683.00,0.2043
10682.00,0.2042
10681.00,0.2040
10680.00,0.2039
10679.00,0.2038
10678.00,0.2038
10677.00,0.2038
10676.00,0.2038
10675.00,0.2037
10674.00,0.2036
10673.00,0.2035
10672.00,0.2036
10671.00,0.2038
10670.00,0.2041
10669.00,0.2043
10668.00,0.2045
10667.00,0.2045
10666.00,0.2046
10665.00,0.2047
10664.00,0.2047
10663.00,0.2048
10662.00,0.2048
10661.00,0.2047
10660.00,0.2045
10659.00,0.2044
10658.00,0.2043
10657.00,0.2043
10656.00,0.2043
10655.00,0.2043
10654.00,0.2042
10653.00,0.2041
10652.00,0.2040
10651.00,0.2040
10650.00,0.2041
10649.00,0.2043
10648.00,0.2045
10647.00,0.2046
10646.00,0.2046
10645.00,0.2044
10644.00,0.2043
10643.00,0.2043
10642.00,0.2044
10641.00,0.2045
10640.00,0.2045
10639.00,0.2046
10638.00,0.2046
10637.00,0.2046
10636.00,0.2047
10635.00,0.2049
10634.00,0.2050
10633.00,0.2052
10632.00,0.2053
10631.00,0.2053
10630.00,0.2052
10629.00,0.2050
10628.00,0.2049
10627.00,0.2047
10626.00,0.2047
10625.00,0.2047
10624.00,0.2048
10623.00,0.2049
10622.00,0.2048
10621.00,0.2046
10620.00,0.2044
10619.00,0.2043
10618.00,0.2045
10617.00,0.2048
10616.00,0.2051
10615.00,0.2053
10614.00,0.2054
10613.00,0.2055
10612.00,0.2056
10611.00,0.2058
10610.00,0.2060
10609.00,0.2061
10608.00,0.2060
10607.00,0.2057
10606.00,0.2055
10605.00,0.2053
10604.00,0.2052
10603.00,0.2050
10602.00,0.2048
10601.00,0.2044
10600.00,0.2040
10599.00,0.2038
10598.00,0.2039
10597.00,0.2043
10596.00,0.2048
10595.00,0.2051
10594.00,0.2052
10593.00,0.2051
10592.00,0.2050
10591.00,0.2050
10590.00,0.2051
10589.00,0.2052
10588.00,0.2052
10587.00,0.2051
10586.00,0.2047
10585.00,0.2044
10584.00,0.2042
10583.00,0.2042
10582.00,0.2043
10581.00,0.2045
10580.00,0.2047
10579.00,0.2049
10578.00,0.2051
10577.00,0.2053
10576.00,0.2055
10575.00,0.2056
10574.00,0.2055
10573.00,0.2053
10572.00,0.2052
10571.00,0.2051
10570.00,0.2051
10569.00,0.2052
10568.00,0.2052
10567.00,0.2051
10566.00,0.2050
10565.00,0.2050
10564.00,0.2052
10563.00,0.2056
10562.00,0.2060
10561.00,0.2063
10560.00,0.2064
10559.00,0.2064
10558.00,0.2063
10557.00,0.2062
10556.00,0.2063
10555.00,0.2063
10554.00,0.2064
10553.00,0.2065
10552.00,0.2065
10551.00,0.2066
10550.00,0.2066
10549.00,0.2067
10548.00,0.2066
10547.00,0.2066
10546.00,0.2065
10545.00,0.2064
10544.00,0.2064
10543.00,0.2064
10542.00,0.2064
10541.00,0.2064
10540.00,0.2063
10539.00,0.2062
10538.00,0.2061
10537.00,0.2060
10536.00,0.2059
10535.00,0.2059
10534.00,0.2059
10533.00,0.2058
10532.00,0.2058
10531.00,0.2058
10530.00,0.2058
10529.00,0.2058
10528.00,0.2058
10527.00,0.2059
10526.00,0.2060
10525.00,0.2061
10524.00,0.2063
10523.00,0.2065
10522.00,0.2066
10521.00,0.2068
10520.00,0.2069
10519.00,0.2069
10518.00,0.2068
10517.00,0.2066
10516.00,0.2064
10515.00,0.2063
10514.00,0.2063
10513.00,0.2064
10512.00,0.2065
10511.00,0.2065
10510.00,0.2064
10509.00,0.2064
10508.00,0.2065
10507.00,0.2067
10506.00,0.2070
10505.00,0.2073
10504.00,0.2074
10503.00,0.2074
10502.00,0.2073
10501.00,0.2072
10500.00,0.2071
10499.00,0.2071
10498.00,0.2072
10497.00,0.2072
10496.00,0.2071
10495.00,0.2069
10494.00,0.2067
10493.00,0.2067
10492.00,0.2068
10491.00,0.2071
10490.00,0.2075
10489.00,0.2078
10488.00,0.2081
10487.00,0.2081
10486.00,0.2081
10485.00,0.2080
10484.00,0.2080
10483.00,0.2081
10482.00,0.2082
10481.00,0.2083
10480.00,0.2083
10479.00,0.2083
10478.00,0.2083
10477.00,0.2082
10476.00,0.2081
10475.00,0.2080
10474.00,0.2080
10473.00,0.2081
10472.00,0.2083
10471.00,0.2085
10470.00,0.2086
10469.00,0.2085
10468.00,0.2084
10467.00,0.2082
10466.00,0.2081
10465.00,0.2081
10464.00,0.2080
10463.00,0.2080
10462.00,0.2080
10461.00,0.2080
10460.00,0.2081
10459.00,0.2081
10458.00,0.2081
10457.00,0.2080
10456.00,0.2079
10455.00,0.2079
10454.00,0.2080
10453.00,0.2082
10452.00,0.2084
10451.00,0.2084
10450.00,0.2082
10449.00,0.2080
10448.00,0.2079
10447.00,0.2081
10446.00,0.2083
10445.00,0.2086
10444.00,0.2086
10443.00,0.2085
10442.00,0.2084
10441.00,0.2083
10440.00,0.2085
10439.00,0.2088
10438.00,0.2091
10437.00,0.2093
10436.00,0.2093
10435.00,0.2091
10434.00,0.2089
10433.00,0.2088
10432.00,0.2087
10431.00,0.2087
10430.00,0.2088
10429.00,0.2089
10428.00,0.2089
10427.00,0.2089
10426.00,0.2088
10425.00,0.2088
10424.00,0.2088
10423.00,0.2089
10422.00,0.2090
10421.00,0.2090
10420.00,0.2090
10419.00,0.2089
10418.00,0.2088
10417.00,0.2087
10416.00,0.2086
10415.00,0.2085
10414.00,0.2085
10413.00,0.2085
10412.00,0.2087
10411.00,0.2090
10410.00,0.2094
10409.00,0.2097
10408.00,0.2098
10407.00,0.2097
10406.00,0.2096
10405.00,0.2096
10404.00,0.2098
10403.00,0.2100
10402.00,0.2101
10401.00,0.2099
10400.00,0.2097
10399.00,0.2094
10398.00,0.2093
10397.00,0.2094
10396.00,0.2097
10395.00,0.2099
10394.00,0.2101
10393.00,0.2103
10392.00,0.2103
10391.00,0.2104
10390.00,0.2104
10389.00,0.2103
10388.00,0.2104
10387.00,0.2104
10386.00,0.2105
10385.00,0.2105
10384.00,0.2104
10383.00,0.2101
10382.00,0.2099
10381.00,0.2097
10380.00,0.2098
10379.00,0.2099
10378.00,0.2101
10377.00,0.2102
10376.00,0.2101
10375.00,0.2101
10374.00,0.2101
10373.00,0.2101
10372.00,0.2101
10371.00,0.2101
10370.00,0.2100
10369.00,0.2100
10368.00,0.2100
10367.00,0.2100
10366.00,0.2100
10365.00,0.2100
10364.00,0.2100
10363.00,0.2100
10362.00,0.2101
10361.00,0.2103
10360.00,0.2105
10359.00,0.2106
10358.00,0.2107
10357.00,0.2107
10356.00,0.2107
10355.00,0.2107
10354.00,0.2108
10353.00,0.2108
10352.00,0.2109
10351.00,0.2110
10350.00,0.2111
10349.00,0.2112
10348.00,0.2112
10347.00,0.2113
10346.00,0.2113
10345.00,0.2115
10344.00,0.2116
10343.00,0.2118
10342.00,0.2118
10341.00,0.2118
10340.00,0.2116
10339.00,0.2114
10338.00,0.2113
10337.00,0.2112
10336.00,0.2110
10335.00,0.2109
10334.00,0.2107
10333.00,0.2106
10332.00,0.2105
10331.00,0.2105
10330.00,0.2105
10329.00,0.2106
10328.00,0.2107
10327.00,0.2110
10326.00,0.2113
10325.00,0.2116
10324.00,0.2118
10323.00,0.2119
10322.00,0.2119
10321.00,0.2118
10320.00,0.2118
10319.00,0.2119
10318.00,0.2120
10317.00,0.2120
10316.00,0.2120
10315.00,0.2119
10314.00,0.2117
10313.00,0.2114
10312.00,0.2113
10311.00,0.2113
10310.00,0.2115
10309.00,0.2119
10308.00,0.2121
10307.00,0.2123
10306.00,0.2122
10305.00,0.2121
10304.00,0.2120
10303.00,0.2121
10302.00,0.2124
10301.00,0.2127
10300.00,0.2129
10299.00,0.2129
10298.00,0.2126
10297.00,0.2122
10296.00,0.2118
10295.00,0.2116
10294.00,0.2116
10293.00,0.2117
10292.00,0.2119
10291.00,0.2119
10290.00,0.2119
10289.00,0.2118
10288.00,0.2119
10287.00,0.2120
10286.00,0.2123
10285.00,0.2125
10284.00,0.2126
10283.00,0.2126
10282.00,0.2127
10281.00,0.2127
10280.00,0.2129
10279.00,0.2131
10278.00,0.2132
10277.00,0.2131
10276.00,0.2130
10275.00,0.2129
10274.00,0.2129
10273.00,0.2131
10272.00,0.2132
10271.00,0.2132
10270.00,0.2130
10269.00,0.2128
10268.00,0.2126
10267.00,0.2126
10266.00,0.2127
10265.00,0.2129
10264.00,0.2130
10263.00,0.2131
10262.00,0.2131
10261.00,0.2131
10260.00,0.2132
10259.00,0.2133
10258.00,0.2134
10257.00,0.2134
10256.00,0.2133
10255.00,0.2132
10254.00,0.2132
10253.00,0.2133
10252.00,0.2135
10251.00,0.2136
10250.00,0.2138
10249.00,0.2138
10248.00,0.2137
10247.00,0.2136
10246.00,0.2137
10245.00,0.2138
10244.00,0.2140
10243.00,0.2141
10242.00,0.2141
10241.00,0.2140
10240.00,0.2139
10239.00,0.2139
10238.00,0.2140
10237.00,0.2141
10236.00,0.2142
10235.00,0.2142
10234.00,0.2141
10233.00,0.2140
10232.00,0.2139
10231.00,0.2138
10230.00,0.2138
10229.00,0.2138
10228.00,0.2138
10227.00,0.2139
10226.00,0.2140
10225.00,0.2142
10224.00,0.2143
10223.00,0.2143
10222.00,0.2143
10221.00,0.2143
10220.00,0.2143
10219.00,0.2145
10218.00,0.2146
10217.00,0.2147
10216.00,0.2146
10215.00,0.2145
10214.00,0.2144
10213.00,0.2143
10212.00,0.2143
10211.00,0.2143
10210.00,0.2144
10209.00,0.2145
10208.00,0.2145
10207.00,0.2145
10206.00,0.2144
10205.00,0.2144
10204.00,0.2144
10203.00,0.2144
10202.00,0.2144
10201.00,0.2145
10200.00,0.2146
10199.00,0.2147
10198.00,0.2148
10197.00,0.2149
10196.00,0.2150
10195.00,0.2150
10194.00,0.2149
10193.00,0.2148
10192.00,0.2147
10191.00,0.2148
10190.00,0.2149
10189.00,0.2150
10188.00,0.2151
10187.00,0.2149
10186.00,0.2147
10185.00,0.2146
10184.00,0.2147
10183.00,0.2150
10182.00,0.2153
10181.00,0.2155
10180.00,0.2155
10179.00,0.2155
10178.00,0.2154
10177.00,0.2154
10176.00,0.2154
10175.00,0.2154
10174.00,0.2155
10173.00,0.2156
10172.00,0.2155
10171.00,0.2155
10170.00,0.2153
10169.00,0.2152
10168.00,0.2152
10167.00,0.2153
10166.00,0.2154
10165.00,0.2155
10164.00,0.2156
10163.00,0.2156
10162.00,0.2156
10161.00,0.2156
10160.00,0.2157
10159.00,0.2157
10158.00,0.2157
10157.00,0.2155
10156.00,0.2153
10155.00,0.2152
10154.00,0.2151
10153.00,0.2151
10152.00,0.2151
10151.00,0.2151
10150.00,0.2151
10149.00,0.2153
10148.00,0.2156
10147.00,0.2159
10146.00,0.2161
10145.00,0.2162
10144.00,0.2162
10143.00,0.2163
10142.00,0.2163
10141.00,0.2164
10140.00,0.2165
10139.00,0.2163
10138.00,0.2162
10137.00,0.2160
10136.00,0.2159
10135.00,0.2160
10134.00,0.2160
10133.00,0.2160
10132.00,0.2159
10131.00,0.2158
10130.00,0.2157
10129.00,0.2156
10128.00,0.2157
10127.00,0.2158
10126.00,0.2160
10125.00,0.2161
10124.00,0.2161
10123.00,0.2161
10122.00,0.2161
10121.00,0.2162
10120.00,0.2164
10119.00,0.2165
10118.00,0.2166
10117.00,0.2166
10116.00,0.2165
10115.00,0.2164
10114.00,0.2163
10113.00,0.2162
10112.00,0.2161
10111.00,0.2160
10110.00,0.2160
10109.00,0.2159
10108.00,0.2158
10107.00,0.2156
10106.00,0.2154
10105.00,0.2153
10104.00,0.2154
10103.00,0.2156
10102.00,0.2157
10101.00,0.2158
10100.00,0.2158
10099.00,0.2158
10098.00,0.2159
10097.00,0.2161
10096.00,0.2163
10095.00,0.2163
10094.00,0.2161
10093.00,0.2159
10092.00,0.2159
10091.00,0.2161
10090.00,0.2164
10089.00,0.2166
10088.00,0.2166
10087.00,0.2165
10086.00,0.2163
10085.00,0.2163
10084.00,0.2164
10083.00,0.2165
10082.00,0.2166
10081.00,0.2165
10080.00,0.2163
10079.00,0.2161
10078.00,0.2161
10077.00,0.2162
10076.00,0.2162
10075.00,0.2162
10074.00,0.2162
10073.00,0.2162
10072.00,0.2163
10071.00,0.2164
10070.00,0.2165
10069.00,0.2164
10068.00,0.2162
10067.00,0.2160
10066.00,0.2159
10065.00,0.2158
10064.00,0.2158
10063.00,0.2159
10062.00,0.2160
10061.00,0.2161
10060.00,0.2161
10059.00,0.2161
10058.00,0.2160
10057.00,0.2159
10056.00,0.2159
10055.00,0.2160
10054.00,0.2160
10053.00,0.2161
10052.00,0.2160
10051.00,0.2159
10050.00,0.2157
10049.00,0.2156
10048.00,0.2155
10047.00,0.2156
10046.00,0.2158
10045.00,0.2159
10044.00,0.2159
10043.00,0.2159
10042.00,0.2158
10041.00,0.2158
10040.00,0.2158
10039.00,0.2159
10038.00,0.2160
10037.00,0.2161
10036.00,0.2160
10035.00,0.2159
10034.00,0.2158
10033.00,0.2158
10032.00,0.2158
10031.00,0.2159
10030.00,0.2160
10029.00,0.2161
10028.00,0.2161
10027.00,0.2162
10026.00,0.2163
10025.00,0.2165
10024.00,0.2165
10023.00,0.2165
10022.00,0.2165
10021.00,0.2164
10020.00,0.2163
10019.00,0.2163
10018.00,0.2162
10017.00,0.2160
10016.00,0.2158
10015.00,0.2156
10014.00,0.2155
10013.00,0.2156
10012.00,0.2157
10011.00,0.2159
10010.00,0.2161
10009.00,0.2162
10008.00,0.2162
10007.00,0.2163
10006.00,0.2162
10005.00,0.2162
10004.00,0.2161
10003.00,0.2161
10002.00,0.2161
10001.00,0.2161
10000.00,0.2161
9999.00,0.2160
9998.00,0.2159
9997.00,0.2159
9996.00,0.2159
9995.00,0.2161
9994.00,0.2163
9993.00,0.2165
9992.00,0.2165
9991.00,0.2164
9990.00,0.2163
9989.00,0.2161
9988.00,0.2160
9987.00,0.2160
9986.00,0.2160
9985.00,0.2159
9984.00,0.2158
9983.00,0.2157
9982.00,0.2157
9981.00,0.2157
9980.00,0.2158
9979.00,0.2159
9978.00,0.2160
9977.00,0.2160
9976.00,0.2160
9975.00,0.2160
9974.00,0.2161
9973.00,0.2161
9972.00,0.2160
9971.00,0.2159
9970.00,0.2159
9969.00,0.2159
9968.00,0.2160
9967.00,0.2162
9966.00,0.2162
9965.00,0.2162
9964.00,0.2162
9963.00,0.2162
9962.00,0.2162
9961.00,0.2162
9960.00,0.2161
9959.00,0.2159
9958.00,0.2158
9957.00,0.2158
9956.00,0.2158
9955.00,0.2158
9954.00,0.2158
9953.00,0.2157
9952.00,0.2157
9951.00,0.2158
9950.00,0.2161
9949.00,0.2163
9948.00,0.2164
9947.00,0.2163
9946.00,0.2162
9945.00,0.2161
9944.00,0.2160
9943.00,0.2160
9942.00,0.2160
9941.00,0.2160
9940.00,0.2160
9939.00,0.2159
9938.00,0.2157
9937.00,0.2157
9936.00,0.2156
9935.00,0.2156
9934.00,0.2157
9933.00,0.2157
9932.00,0.2156
9931.00,0.2155
9930.00,0.2154
9929.00,0.2154
9928.00,0.2155
9927.00,0.2156
9926.00,0.2156
9925.00,0.2157
9924.00,0.2158
9923.00,0.2159
9922.00,0.2160
9921.00,0.2161
9920.00,0.2161
9919.00,0.2160
9918.00,0.2159
9917.00,0.2158
9916.00,0.2158
9915.00,0.2159
9914.00,0.2159
9913.00,0.2159
9912.00,0.2158
9911.00,0.2158
9910.00,0.2157
9909.00,0.2157
9908.00,0.2157
9907.00,0.2157
9906.00,0.2156
9905.00,0.2156
9904.00,0.2156
9903.00,0.2155
9902.00,0.2154
9901.00,0.2153
9900.00,0.2153
9899.00,0.2154
9898.00,0.2156
9897.00,0.2157
9896.00,0.2157
9895.00,0.2156
9894.00,0.2155
9893.00,0.2155
9892.00,0.2155
9891.00,0.2155
9890.00,0.2155
9889.00,0.2154
9888.00,0.2154
9887.00,0.2154
9886.00,0.2155
9885.00,0.2156
9884.00,0.2157
9883.00,0.2158
9882.00,0.2158
9881.00,0.2157
9880.00,0.2157
9879.00,0.2156
9878.00,0.2154
9877.00,0.2153
9876.00,0.2153
9875.00,0.2153
9874.00,0.2154
9873.00,0.2154
9872.00,0.2153
9871.00,0.2153
9870.00,0.2154
9869.00,0.2155
9868.00,0.2157
9867.00,0.2158
9866.00,0.2157
9865.00,0.2156
9864.00,0.2154
9863.00,0.2154
9862.00,0.2154
9861.00,0.2154
9860.00,0.2154
9859.00,0.2154
9858.00,0.2155
9857.00,0.2156
9856.00,0.2157
9855.00,0.2158
9854.00,0.2157
9853.00,0.2156
9852.00,0.2155
9851.00,0.2155
9850.00,0.2156
9849.00,0.2156
9848.00,0.2156
9847.00,0.2155
9846.00,0.2154
9845.00,0.2153
9844.00,0.2154
9843.00,0.2155
9842.00,0.2156
9841.00,0.2156
9840.00,0.2156
9839.00,0.2155
9838.00,0.2155
9837.00,0.2154
9836.00,0.2153
9835.00,0.2153
9834.00,0.2152
9833.00,0.2151
9832.00,0.2151
9831.00,0.2150
9830.00,0.2149
9829.00,0.2148
9828.00,0.2148
9827.00,0.2148
9826.00,0.2149
9825.00,0.2150
9824.00,0.2151
9823.00,0.2151
9822.00,0.2150
9821.00,0.2149
9820.00,0.2149
9819.00,0.2150
9818.00,0.2151
9817.00,0.2151
9816.00,0.2151
9815.00,0.2150
9814.00,0.2149
9813.00,0.2149
9812.00,0.2149
9811.00,0.2148
9810.00,0.2148
9809.00,0.2148
9808.00,0.2148
9807.00,0.2147
9806.00,0.2147
9805.00,0.2146
9804.00,0.2146
9803.00,0.2145
9802.00,0.2146
9801.00,0.2146
9800.00,0.2147
9799.00,0.2147
9798.00,0.2148
9797.00,0.2148
9796.00,0.2150
9795.00,0.2151
9794.00,0.2152
9793.00,0.2153
9792.00,0.2153
9791.00,0.2153
9790.00,0.2152
9789.00,0.2151
9788.00,0.2151
9787.00,0.2150
9786.00,0.2149
9785.00,0.2148
9784.00,0.2146
9783.00,0.2144
9782.00,0.2143
9781.00,0.2143
9780.00,0.2145
9779.00,0.2148
9778.00,0.2150
9777.00,0.2151
9776.00,0.2150
9775.00,0.2149
9774.00,0.2148
9773.00,0.2148
9772.00,0.2149
9771.00,0.2150
9770.00,0.2150
9769.00,0.2150
9768.00,0.2149
9767.00,0.2148
9766.00,0.2147
9765.00,0.2148
9764.00,0.2149
9763.00,0.2150
9762.00,0.2151
9761.00,0.2151
9760.00,0.2150
9759.00,0.2148
9758.00,0.2146
9757.00,0.2145
9756.00,0.2144
9755.00,0.2145
9754.00,0.2146
9753.00,0.2147
9752.00,0.2148
9751.00,0.2148
9750.00,0.2147
9749.00,0.2147
9748.00,0.2147
9747.00,0.2149
9746.00,0.2151
9745.00,0.2151
9744.00,0.2150
9743.00,0.2148
9742.00,0.2146
9741.00,0.2146
9740.00,0.2145
9739.00,0.2145
9738.00,0.2144
9737.00,0.2143
9736.00,0.2142
9735.00,0.2142
9734.00,0.2143
9733.00,0.2144
9732.00,0.2143
9731.00,0.2143
9730.00,0.2142
9729.00,0.2142
9728.00,0.2143
9727.00,0.2144
9726.00,0.2144
9725.00,0.2144
9724.00,0.2144
9723.00,0.2143
9722.00,0.2143
9721.00,0.2143
9720.00,0.2144
9719.00,0.2145
9718.00,0.2146
9717.00,0.2145
9716.00,0.2145
9715.00,0.2143
9714.00,0.2143
9713.00,0.2142
9712.00,0.2142
9711.00,0.2141
9710.00,0.2141
9709.00,0.2140
9708.00,0.2140
9707.00,0.2139
9706.00,0.2139
9705.00,0.2138
9704.00,0.2138
9703.00,0.2137
9702.00,0.2138
9701.00,0.2138
9700.00,0.2138
9699.00,0.2138
9698.00,0.2138
9697.00,0.2138
9696.00,0.2138
9695.00,0.2138
9694.00,0.2138
9693.00,0.2138
9692.00,0.2139
9691.00,0.2140
9690.00,0.2142
9689.00,0.2143
9688.00,0.2143
9687.00,0.2143
9686.00,0.2142
9685.00,0.2142
9684.00,0.2143
9683.00,0.2143
9682.00,0.2141
9681.00,0.2139
9680.00,0.2137
9679.00,0.2136
9678.00,0.2135
9677.00,0.2136
9676.00,0.2136
9675.00,0.2137
9674.00,0.2137
9673.00,0.2137
9672.00,0.2136
9671.00,0.2136
9670.00,0.2135
9669.00,0.2135
9668.00,0.2135
9667.00,0.2134
9666.00,0.2133
9665.00,0.2132
9664.00,0.2132
9663.00,0.2133
9662.00,0.2135
9661.00,0.2136
9660.00,0.2136
9659.00,0.2136
9658.00,0.2137
9657.00,0.2138
9656.00,0.2139
9655.00,0.2140
9654.00,0.2139
9653.00,0.2137
9652.00,0.2135
9651.00,0.2134
9650.00,0.2134
9649.00,0.2136
9648.00,0.2137
9647.00,0.2136
9646.00,0.2134
9645.00,0.2132
9644.00,0.2130
9643.00,0.2130
9642.00,0.2131
9641.00,0.2132
9640.00,0.2132
9639.00,0.2132
9638.00,0.2131
9637.00,0.2131
9636.00,0.2130
9635.00,0.2130
9634.00,0.2130
9633.00,0.2130
9632.00,0.2130
9631.00,0.2130
9630.00,0.2130
9629.00,0.2129
9628.00,0.2128
9627.00,0.2128
9626.00,0.2130
9625.00,0.2131
9624.00,0.2133
9623.00,0.2133
9622.00,0.2132
9621.00,0.2131
9620.00,0.2132
9619.00,0.2133
9618.00,0.2134
9617.00,0.2134
9616.00,0.2133
9615.00,0.2132
9614.00,0.2131
9613.00,0.2131
9612.00,0.2132
9611.00,0.2133
9610.00,0.2133
9609.00,0.2132
9608.00,0.2130
9607.00,0.2129
9606.00,0.2130
9605.00,0.2131
9604.00,0.2132
9603.00,0.2132
9602.00,0.2132
9601.00,0.2131
9600.00,0.2131
9599.00,0.2130
9598.00,0.2129
9597.00,0.2128
9596.00,0.2128
9595.00,0.2128
9594.00,0.2128
9593.00,0.2128
9592.00,0.2128
9591.00,0.2128
9590.00,0.2128
9589.00,0.2128
9588.00,0.2128
9587.00,0.2128
9586.00,0.2127
9585.00,0.2126
9584.00,0.2123
9583.00,0.2122
9582.00,0.2121
9581.00,0.2121
9580.00,0.2122
9579.00,0.2122
9578.00,0.2123
9577.00,0.2122
9576.00,0.2121
9575.00,0.2121
9574.00,0.2121
9573.00,0.2122
9572.00,0.2123
9571.00,0.2124
9570.00,0.2124
9569.00,0.2125
9568.00,0.2125
9567.00,0.2126
9566.00,0.2127
9565.00,0.2127
9564.00,0.2127
9563.00,0.2128
9562.00,0.2128
9561.00,0.2128
9560.00,0.2127
9559.00,0.2126
9558.00,0.2124
9557.00,0.2123
9556.00,0.2123
9555.00,0.2124
9554.00,0.2124
9553.00,0.2124
9552.00,0.2123
9551.00,0.2123
9550.00,0.2123
9549.00,0.2123
9548.00,0.2122
9547.00,0.2123
9546.00,0.2124
9545.00,0.2126
9544.00,0.2128
9543.00,0.2129
9542.00,0.2128
9541.00,0.2126
9540.00,0.2124
9539.00,0.2124
9538.00,0.2124
9537.00,0.2124
9536.00,0.2123
9535.00,0.2122
9534.00,0.2121
9533.00,0.2120
9532.00,0.2121
9531.00,0.2121
9530.00,0.2122
9529.00,0.2123
9528.00,0.2123
9527.00,0.2123
9526.00,0.2123
9525.00,0.2123
9524.00,0.2123
9523.00,0.2123
9522.00,0.2122
9521.00,0.2121
9520.00,0.2120
9519.00,0.2120
9518.00,0.2121
9517.00,0.2121
9516.00,0.2122
9515.00,0.2121
9514.00,0.2120
9513.00,0.2119
9512.00,0.2119
9511.00,0.2119
9510.00,0.2119
9509.00,0.2119
9508.00,0.2119
9507.00,0.2120
9506.00,0.2121
9505.00,0.2121
9504.00,0.2121
9503.00,0.2121
9502.00,0.2120
9501.00,0.2121
9500.00,0.2121
9499.00,0.2121
9498.00,0.2120
9497.00,0.2119
9496.00,0.2118
9495.00,0.2117
9494.00,0.2117
9493.00,0.2117
9492.00,0.2117
9491.00,0.2118
9490.00,0.2119
9489.00,0.2120
9488.00,0.2119
9487.00,0.2118
9486.00,0.2117
9485.00,0.2117
9484.00,0.2118
9483.00,0.2119
9482.00,0.2119
9481.00,0.2118
9480.00,0.2116
9479.00,0.2115
9478.00,0.2116
9477.00,0.2118
9476.00,0.2119
9475.00,0.2119
9474.00,0.2117
9473.00,0.2116
9472.00,0.2115
9471.00,0.2115
9470.00,0.2116
9469.00,0.2117
9468.00,0.2117
9467.00,0.2117
9466.00,0.2116
9465.00,0.2116
9464.00,0.2117
9463.00,0.2118
9462.00,0.2118
9461.00,0.2118
9460.00,0.2117
9459.00,0.2115
9458.00,0.2114
9457.00,0.2113
9456.00,0.2112
9455.00,0.2112
9454.00,0.2111
9453.00,0.2111
9452.00,0.2111
9451.00,0.2110
9450.00,0.2110
9449.00,0.2109
9448.00,0.2108
9447.00,0.2107
9446.00,0.2107
9445.00,0.2108
9444.00,0.2108
9443.00,0.2107
9442.00,0.2107
9441.00,0.2105
9440.00,0.2104
9439.00,0.2104
9438.00,0.2104
9437.00,0.2105
9436.00,0.2107
9435.00,0.2107
9434.00,0.2107
9433.00,0.2106
9432.00,0.2104
9431.00,0.2104
9430.00,0.2104
9429.00,0.2105
9428.00,0.2106
9427.00,0.2107
9426.00,0.2106
9425.00,0.2105
9424.00,0.2105
9423.00,0.2104
9422.00,0.2105
9421.00,0.2106
9420.00,0.2108
9419.00,0.2108
9418.00,0.2108
9417.00,0.2108
9416.00,0.2107
9415.00,0.2107
9414.00,0.2107
9413.00,0.2109
9412.00,0.2110
9411.00,0.2111
9410.00,0.2111
9409.00,0.2110
9408.00,0.2109
9407.00,0.2108
9406.00,0.2107
9405.00,0.2106
9404.00,0.2106
9403.00,0.2105
9402.00,0.2104
9401.00,0.2103
9400.00,0.2103
9399.00,0.2104
9398.00,0.2105
9397.00,0.2106
9396.00,0.2107
9395.00,0.2107
9394.00,0.2107
9393.00,0.2106
9392.00,0.2105
9391.00,0.2105
9390.00,0.2105
9389.00,0.2105
9388.00,0.2104
9387.00,0.2103
9386.00,0.2102
9385.00,0.2103
9384.00,0.2104
9383.00,0.2104
9382.00,0.2105
9381.00,0.2105
9380.00,0.2104
9379.00,0.2104
9378.00,0.2104
9377.00,0.2103
9376.00,0.2103
9375.00,0.2103
9374.00,0.2103
9373.00,0.2103
9372.00,0.2102
9371.00,0.2102
9370.00,0.2101
9369.00,0.2102
9368.00,0.2104
9367.00,0.2105
9366.00,0.2105
9365.00,0.2104
9364.00,0.2103
9363.00,0.2102
9362.00,0.2103
9361.00,0.2104
9360.00,0.2104
9359.00,0.2104
9358.00,0.2104
9357.00,0.2104
9356.00,0.2104
9355.00,0.2105
9354.00,0.2106
9353.00,0.2107
9352.00,0.2107
9351.00,0.2107
9350.00,0.2106
9349.00,0.2105
9348.00,0.2104
9347.00,0.2103
9346.00,0.2103
9345.00,0.2103
9344.00,0.2103
9343.00,0.2102
9342.00,0.2102
9341.00,0.2103
9340.00,0.2104
9339.00,0.2106
9338.00,0.2107
9337.00,0.2106
9336.00,0.2104
9335.00,0.2102
9334.00,0.2100
9333.00,0.2100
9332.00,0.2100
9331.00,0.2100
9330.00,0.2098
9329.00,0.2096
9328.00,0.2094
9327.00,0.2095
9326.00,0.2097
9325.00,0.2099
9324.00,0.2100
9323.00,0.2099
9322.00,0.2098
9321.00,0.2098
9320.00,0.2097
9319.00,0.2098
9318.00,0.2098
9317.00,0.2099
9316.00,0.2100
9315.00,0.2100
9314.00,0.2100
9313.00,0.2099
9312.00,0.2098
9311.00,0.2098
9310.00,0.2098
9309.00,0.2099
9308.00,0.2100
9307.00,0.2099
9306.00,0.2097
9305.00,0.2096
9304.00,0.2095
9303.00,0.2096
9302.00,0.2097
9301.00,0.2098
9300.00,0.2097
9299.00,0.2097
9298.00,0.2097
9297.00,0.2097
9296.00,0.2098
9295.00,0.2098
9294.00,0.2099
9293.00,0.2099
9292.00,0.2099
9291.00,0.2099
9290.00,0.2099
9289.00,0.2099
9288.00,0.2099
9287.00,0.2100
9286.00,0.2100
9285.00,0.2100
9284.00,0.2099
9283.00,0.2098
9282.00,0.2098
9281.00,0.2097
9280.00,0.2097
9279.00,0.2097
9278.00,0.2097
9277.00,0.2097
9276.00,0.2096
9275.00,0.2095
9274.00,0.2095
9273.00,0.2095
9272.00,0.2096
9271.00,0.2097
9270.00,0.2098
9269.00,0.2099
9268.00,0.2099
9267.00,0.2099
9266.00,0.2099
9265.00,0.2098
9264.00,0.2098
9263.00,0.2098
9262.00,0.2098
9261.00,0.2097
9260.00,0.2096
9259.00,0.2095
9258.00,0.2094
9257.00,0.2094
9256.00,0.2094
9255.00,0.2094
9254.00,0.2095
9253.00,0.2094
9252.00,0.2094
9251.00,0.2093
9250.00,0.2092
9249.00,0.2092
9248.00,0.2093
9247.00,0.2093
9246.00,0.2094
9245.00,0.2094
9244.00,0.2094
9243.00,0.2093
9242.00,0.2093
9241.00,0.2094
9240.00,0.2095
9239.00,0.2096
9238.00,0.2097
9237.00,0.2097
9236.00,0.2096
9235.00,0.2095
9234.00,0.2094
9233.00,0.2093
9232.00,0.2092
9231.00,0.2092
9230.00,0.2092
9229.00,0.2092
9228.00,0.2092
9227.00,0.2092
9226.00,0.2092
9225.00,0.2091
9224.00,0.2090
9223.00,0.2090
9222.00,0.2090
9221.00,0.2091
9220.00,0.2091
9219.00,0.2091
9218.00,0.2090
9217.00,0.2089
9216.00,0.2088
9215.00,0.2089
9214.00,0.2089
9213.00,0.2090
9212.00,0.2091
9211.00,0.2091
9210.00,0.2091
9209.00,0.2090
9208.00,0.2089
9207.00,0.2089
9206.00,0.2088
9205.00,0.2088
9204.00,0.2089
9203.00,0.2089
9202.00,0.2089
9201.00,0.2089
9200.00,0.2089
9199.00,0.2090
9198.00,0.2090
9197.00,0.2090
9196.00,0.2089
9195.00,0.2089
9194.00,0.2089
9193.00,0.2090
9192.00,0.2090
9191.00,0.2089
9190.00,0.2089
9189.00,0.2089
9188.00,0.2089
9187.00,0.2090
9186.00,0.2090
9185.00,0.2090
9184.00,0.2089
9183.00,0.2089
9182.00,0.2089
9181.00,0.2089
9180.00,0.2090
9179.00,0.2091
9178.00,0.2090
9177.00,0.2089
9176.00,0.2089
9175.00,0.2089
9174.00,0.2090
9173.00,0.2090
9172.00,0.2089
9171.00,0.2087
9170.00,0.2086
9169.00,0.2085
9168.00,0.2085
9167.00,0.2086
9166.00,0.2086
9165.00,0.2086
9164.00,0.2086
9163.00,0.2085
9162.00,0.2084
9161.00,0.2083
9160.00,0.2082
9159.00,0.2082
9158.00,0.2082
9157.00,0.2083
9156.00,0.2084
9155.00,0.2084
9154.00,0.2084
9153.00,0.2083
9152.00,0.2082
9151.00,0.2083
9150.00,0.2084
9149.00,0.2085
9148.00,0.2085
9147.00,0.2084
9146.00,0.2083
9145.00,0.2083
9144.00,0.2082
9143.00,0.2083
9142.00,0.2083
9141.00,0.2083
9140.00,0.2082
9139.00,0.2082
9138.00,0.2082
9137.00,0.2082
9136.00,0.2082
9135.00,0.2083
9134.00,0.2084
9133.00,0.2084
9132.00,0.2085
9131.00,0.2085
9130.00,0.2085
9129.00,0.2084
9128.00,0.2084
9127.00,0.2083
9126.00,0.2083
9125.00,0.2082
9124.00,0.2082
9123.00,0.2081
9122.00,0.2081
9121.00,0.2081
9120.00,0.2081
9119.00,0.2081
9118.00,0.2080
9117.00,0.2080
9116.00,0.2080
9115.00,0.2080
9114.00,0.2080
9113.00,0.2080
9112.00,0.2080
9111.00,0.2080
9110.00,0.2081
9109.00,0.2081
9108.00,0.2081
9107.00,0.2082
9106.00,0.2082
9105.00,0.2082
9104.00,0.2082
9103.00,0.2082
9102.00,0.2082
9101.00,0.2082
9100.00,0.2082
9099.00,0.2082
9098.00,0.2082
9097.00,0.2082
9096.00,0.2081
9095.00,0.2081
9094.00,0.2081
9093.00,0.2081
9092.00,0.2080
9091.00,0.2079
9090.00,0.2078
9089.00,0.2077
9088.00,0.2076
9087.00,0.2077
9086.00,0.2077
9085.00,0.2078
9084.00,0.2079
9083.00,0.2079
9082.00,0.2079
9081.00,0.2079
9080.00,0.2080
9079.00,0.2080
9078.00,0.2081
9077.00,0.2080
9076.00,0.2079
9075.00,0.2078
9074.00,0.2077
9073.00,0.2077
9072.00,0.2077
9071.00,0.2077
9070.00,0.2077
9069.00,0.2077
9068.00,0.2077
9067.00,0.2077
9066.00,0.2077
9065.00,0.2078
9064.00,0.2078
9063.00,0.2078
9062.00,0.2078
9061.00,0.2078
9060.00,0.2078
9059.00,0.2078
9058.00,0.2078
9057.00,0.2079
9056.00,0.2079
9055.00,0.2079
9054.00,0.2079
9053.00,0.2079
9052.00,0.2079
9051.00,0.2080
9050.00,0.2080
9049.00,0.2079
9048.00,0.2079
9047.00,0.2079
9046.00,0.2078
9045.00,0.2078
9044.00,0.2079
9043.00,0.2079
9042.00,0.2080
9041.00,0.2079
9040.00,0.2079
9039.00,0.2078
9038.00,0.2078
9037.00,0.2078
9036.00,0.2078
9035.00,0.2077
9034.00,0.2076
9033.00,0.2075
9032.00,0.2075
9031.00,0.2075
9030.00,0.2074
9029.00,0.2073
9028.00,0.2073
9027.00,0.2073
9026.00,0.2073
9025.00,0.2074
9024.00,0.2074
9023.00,0.2073
9022.00,0.2072
9021.00,0.2072
9020.00,0.2072
9019.00,0.2072
9018.00,0.2071
9017.00,0.2071
9016.00,0.2071
9015.00,0.2072
9014.00,0.2073
9013.00,0.2073
9012.00,0.2073
9011.00,0.2073
9010.00,0.2072
9009.00,0.2071
9008.00,0.2070
9007.00,0.2070
9006.00,0.2069
9005.00,0.2070
9004.00,0.2070
9003.00,0.2071
9002.00,0.2072
9001.00,0.2072
9000.00,0.2073
8999.00,0.2073
8998.00,0.2073
8997.00,0.2073
8996.00,0.2073
8995.00,0.2072
8994.00,0.2072
8993.00,0.2072
8992.00,0.2072
8991.00,0.2073
8990.00,0.2074
8989.00,0.2075
8988.00,0.2075
8987.00,0.2076
8986.00,0.2076
8985.00,0.2076
8984.00,0.2075
8983.00,0.2075
8982.00,0.2074
8981.00,0.2073
8980.00,0.2073
8979.00,0.2072
8978.00,0.2072
8977.00,0.2072
8976.00,0.2073
8975.00,0.2073
8974.00,0.2073
8973.00,0.2073
8972.00,0.2074
8971.00,0.2075
8970.00,0.2075
8969.00,0.2076
8968.00,0.2076
8967.00,0.2075
8966.00,0.2074
8965.00,0.2073
8964.00,0.2072
8963.00,0.2071
8962.00,0.2070
8961.00,0.2070
8960.00,0.2069
8959.00,0.2069
8958.00,0.2069
8957.00,0.2069
8956.00,0.2071
8955.00,0.2074
8954.00,0.2075
8953.00,0.2076
8952.00,0.2075
8951.00,0.2075
8950.00,0.2074
8949.00,0.2074
8948.00,0.2074
8947.00,0.2073
8946.00,0.2071
8945.00,0.2070
8944.00,0.2070
8943.00,0.2071
8942.00,0.2072
8941.00,0.2074
8940.00,0.2074
8939.00,0.2075
8938.00,0.2075
8937.00,0.2075
8936.00,0.2076
8935.00,0.2076
8934.00,0.2075
8933.00,0.2074
8932.00,0.2073
8931.00,0.2073
8930.00,0.2072
8929.00,0.2073
8928.00,0.2073
8927.00,0.2074
8926.00,0.2074
8925.00,0.2074
8924.00,0.2073
8923.00,0.2073
8922.00,0.2073
8921.00,0.2072
8920.00,0.2072
8919.00,0.2072
8918.00,0.2073
8917.00,0.2074
8916.00,0.2074
8915.00,0.2074
8914.00,0.2075
8913.00,0.2076
8912.00,0.2077
8911.00,0.2076
8910.00,0.2074
8909.00,0.2072
8908.00,0.2070
8907.00,0.2070
8906.00,0.2071
8905.00,0.2072
8904.00,0.2072
8903.00,0.2072
8902.00,0.2073
8901.00,0.2074
8900.00,0.2075
8899.00,0.2075
8898.00,0.2074
8897.00,0.2073
8896.00,0.2072
8895.00,0.2071
8894.00,0.2071
8893.00,0.2071
8892.00,0.2071
8891.00,0.2073
8890.00,0.2074
8889.00,0.2076
8888.00,0.2077
8887.00,0.2077
8886.00,0.2077
8885.00,0.2077
8884.00,0.2078
8883.00,0.2077
8882.00,0.2075
8881.00,0.2073
8880.00,0.2072
8879.00,0.2072
8878.00,0.2072
8877.00,0.2073
8876.00,0.2072
8875.00,0.2071
8874.00,0.2071
8873.00,0.2071
8872.00,0.2073
8871.00,0.2074
8870.00,0.2074
8869.00,0.2074
8868.00,0.2074
8867.00,0.2074
8866.00,0.2075
8865.00,0.2076
8864.00,0.2077
8863.00,0.2077
8862.00,0.2076
8861.00,0.2075
8860.00,0.2075
8859.00,0.2075
8858.00,0.2075
8857.00,0.2075
8856.00,0.2076
8855.00,0.2076
8854.00,0.2076
8853.00,0.2076
8852.00,0.2076
8851.00,0.2077
8850.00,0.2078
8849.00,0.2079
8848.00,0.2079
8847.00,0.2078
8846.00,0.2077
8845.00,0.2077
8844.00,0.2078
8843.00,0.2078
8842.00,0.2078
8841.00,0.2078
8840.00,0.2078
8839.00,0.2078
8838.00,0.2078
8837.00,0.2079
8836.00,0.2080
8835.00,0.2081
8834.00,0.2081
8833.00,0.2080
8832.00,0.2080
8831.00,0.2079
8830.00,0.2080
8829.00,0.2081
8828.00,0.2081
8827.00,0.2081
8826.00,0.2081
8825.00,0.2081
8824.00,0.2081
8823.00,0.2082
8822.00,0.2084
8821.00,0.2085
8820.00,0.2087
8819.00,0.2088
8818.00,0.2089
8817.00,0.2090
8816.00,0.2090
8815.00,0.2089
8814.00,0.2089
8813.00,0.2087
8812.00,0.2086
8811.00,0.2084
8810.00,0.2083
8809.00,0.2083
8808.00,0.2084
8807.00,0.2087
8806.00,0.2089
8805.00,0.2090
8804.00,0.2090
8803.00,0.2091
8802.00,0.2093
8801.00,0.2094
8800.00,0.2093
8799.00,0.2091
8798.00,0.2089
8797.00,0.2088
8796.00,0.2088
8795.00,0.2089
8794.00,0.2090
8793.00,0.2089
8792.00,0.2089
8791.00,0.2089
8790.00,0.2089
8789.00,0.2090
8788.00,0.2091
8787.00,0.2091
8786.00,0.2091
8785.00,0.2091
8784.00,0.2093
8783.00,0.2094
8782.00,0.2094
8781.00,0.2094
8780.00,0.2093
8779.00,0.2093
8778.00,0.2093
8777.00,0.2094
8776.00,0.2095
8775.00,0.2095
8774.00,0.2095
8773.00,0.2095
8772.00,0.2097
8771.00,0.2099
8770.00,0.2100
8769.00,0.2101
8768.00,0.2101
8767.00,0.2102
8766.00,0.2103
8765.00,0.2104
8764.00,0.2104
8763.00,0.2104
8762.00,0.2103
8761.00,0.2103
8760.00,0.2103
8759.00,0.2104
8758.00,0.2104
8757.00,0.2105
8756.00,0.2104
8755.00,0.2104
8754.00,0.2104
8753.00,0.2105
8752.00,0.2106
8751.00,0.2107
8750.00,0.2109
8749.00,0.2110
8748.00,0.2110
8747.00,0.2109
8746.00,0.2110
8745.00,0.2111
8744.00,0.2112
8743.00,0.2113
8742.00,0.2114
8741.00,0.2114
8740.00,0.2113
8739.00,0.2113
8738.00,0.2112
8737.00,0.2112
8736.00,0.2112
8735.00,0.2111
8734.00,0.2111
8733.00,0.2111
8732.00,0.2111
8731.00,0.2112
8730.00,0.2113
8729.00,0.2115
8728.00,0.2117
8727.00,0.2119
8726.00,0.2121
8725.00,0.2121
8724.00,0.2121
8723.00,0.2121
8722.00,0.2122
8721.00,0.2123
8720.00,0.2123
8719.00,0.2123
8718.00,0.2123
8717.00,0.2124
8716.00,0.2124
8715.00,0.2125
8714.00,0.2126
8713.00,0.2126
8712.00,0.2125
8711.00,0.2125
8710.00,0.2125
8709.00,0.2126
8708.00,0.2127
8707.00,0.2127
8706.00,0.2128
8705.00,0.2129
8704.00,0.2130
8703.00,0.2131
8702.00,0.2132
8701.00,0.2133
8700.00,0.2133
8699.00,0.2134
8698.00,0.2135
8697.00,0.2136
8696.00,0.2137
8695.00,0.2137
8694.00,0.2137
8693.00,0.2138
8692.00,0.2138
8691.00,0.2138
8690.00,0.2138
8689.00,0.2138
8688.00,0.2138
8687.00,0.2138
8686.00,0.2139
8685.00,0.2141
8684.00,0.2143
8683.00,0.2144
8682.00,0.2145
8681.00,0.2146
8680.00,0.2147
8679.00,0.2148
8678.00,0.2150
8677.00,0.2150
8676.00,0.2150
8675.00,0.2150
8674.00,0.2149
8673.00,0.2149
8672.00,0.2150
8671.00,0.2150
8670.00,0.2150
8669.00,0.2150
8668.00,0.2150
8667.00,0.2150
8666.00,0.2151
8665.00,0.2152
8664.00,0.2154
8663.00,0.2156
8662.00,0.2157
8661.00,0.2159
8660.00,0.2160
8659.00,0.2162
8658.00,0.2163
8657.00,0.2164
8656.00,0.2166
8655.00,0.2166
8654.00,0.2167
8653.00,0.2167
8652.00,0.2167
8651.00,0.2167
8650.00,0.2167
8649.00,0.2167
8648.00,0.2167
8647.00,0.2167
8646.00,0.2168
8645.00,0.2168
8644.00,0.2169
8643.00,0.2170
8642.00,0.2172
8641.00,0.2174
8640.00,0.2175
8639.00,0.2176
8638.00,0.2177
8637.00,0.2177
8636.00,0.2179
8635.00,0.2180
8634.00,0.2181
8633.00,0.2182
8632.00,0.2182
8631.00,0.2182
8630.00,0.2183
8629.00,0.2183
8628.00,0.2184
8627.00,0.2184
8626.00,0.2184
8625.00,0.2184
8624.00,0.2184
8623.00,0.2185
8622.00,0.2186
8621.00,0.2187
8620.00,0.2188
8619.00,0.2189
8618.00,0.2189
8617.00,0.2190
8616.00,0.2190
8615.00,0.2190
8614.00,0.2191
8613.00,0.2192
8612.00,0.2193
8611.00,0.2193
8610.00,0.2193
8609.00,0.2194
8608.00,0.2195
8607.00,0.2196
8606.00,0.2198
8605.00,0.2199
8604.00,0.2199
8603.00,0.2199
8602.00,0.2200
8601.00,0.2200
8600.00,0.2201
8599.00,0.2202
8598.00,0.2202
8597.00,0.2203
8596.00,0.2204
8595.00,0.2204
8594.00,0.2205
8593.00,0.2205
8592.00,0.2206
8591.00,0.2207
8590.00,0.2207
8589.00,0.2208
8588.00,0.2208
8587.00,0.2208
8586.00,0.2209
8585.00,0.2210
8584.00,0.2211
8583.00,0.2212
8582.00,0.2213
8581.00,0.2213
8580.00,0.2214
8579.00,0.2213
8578.00,0.2213
8577.00,0.2214
8576.00,0.2216
8575.00,0.2217
8574.00,0.2217
8573.00,0.2217
8572.00,0.2218
8571.00,0.2219
8570.00,0.2220
8569.00,0.2220
8568.00,0.2220
8567.00,0.2220
8566.00,0.2220
8565.00,0.2221
8564.00,0.2222
8563.00,0.2223
8562.00,0.2224
8561.00,0.2225
8560.00,0.2226
8559.00,0.2227
8558.00,0.2228
8557.00,0.2229
8556.00,0.2230
8555.00,0.2231
8554.00,0.2232
8553.00,0.2232
8552.00,0.2232
8551.00,0.2232
8550.00,0.2231
8549.00,0.2232
8548.00,0.2232
8547.00,0.2233
8546.00,0.2233
8545.00,0.2234
8544.00,0.2235
8543.00,0.2236
8542.00,0.2238
8541.00,0.2239
8540.00,0.2240
8539.00,0.2240
8538.00,0.2239
8537.00,0.2239
8536.00,0.2240
8535.00,0.2241
8534.00,0.2241
8533.00,0.2241
8532.00,0.2241
8531.00,0.2242
8530.00,0.2244
8529.00,0.2245
8528.00,0.2246
8527.00,0.2246
8526.00,0.2246
8525.00,0.2246
8524.00,0.2246
8523.00,0.2246
8522.00,0.2247
8521.00,0.2247
8520.00,0.2247
8519.00,0.2247
8518.00,0.2247
8517.00,0.2248
8516.00,0.2248
8515.00,0.2249
8514.00,0.2250
8513.00,0.2250
8512.00,0.2250
8511.00,0.2251
8510.00,0.2252
8509.00,0.2253
8508.00,0.2254
8507.00,0.2255
8506.00,0.2256
8505.00,0.2257
8504.00,0.2258
8503.00,0.2259
8502.00,0.2260
8501.00,0.2260
8500.00,0.2261
8499.00,0.2261
8498.00,0.2262
8497.00,0.2262
8496.00,0.2262
8495.00,0.2263
8494.00,0.2264
8493.00,0.2264
8492.00,0.2264
8491.00,0.2264
8490.00,0.2264
8489.00,0.2265
8488.00,0.2266
8487.00,0.2266
8486.00,0.2267
8485.00,0.2266
8484.00,0.2266
8483.00,0.2267
8482.00,0.2268
8481.00,0.2268
8480.00,0.2269
8479.00,0.2269
8478.00,0.2270
8477.00,0.2271
8476.00,0.2272
8475.00,0.2273
8474.00,0.2274
8473.00,0.2275
8472.00,0.2275
8471.00,0.2276
8470.00,0.2277
8469.00,0.2277
8468.00,0.2278
8467.00,0.2277
8466.00,0.2277
8465.00,0.2277
8464.00,0.2277
8463.00,0.2278
8462.00,0.2279
8461.00,0.2280
8460.00,0.2281
8459.00,0.2282
8458.00,0.2282
8457.00,0.2283
8456.00,0.2285
8455.00,0.2286
8454.00,0.2288
8453.00,0.2288
8452.00,0.2287
8451.00,0.2286
8450.00,0.2286
8449.00,0.2286
8448.00,0.2288
8447.00,0.2289
8446.00,0.2289
8445.00,0.2289
8444.00,0.2290
8443.00,0.2290
8442.00,0.2291
8441.00,0.2292
8440.00,0.2293
8439.00,0.2294
8438.00,0.2295
8437.00,0.2295
8436.00,0.2294
8435.00,0.2294
8434.00,0.2294
8433.00,0.2294
8432.00,0.2294
8431.00,0.2294
8430.00,0.2293
8429.00,0.2292
8428.00,0.2292
8427.00,0.2294
8426.00,0.2295
8425.00,0.2297
8424.00,0.2299
8423.00,0.2300
8422.00,0.2301
8421.00,0.2302
8420.00,0.2302
8419.00,0.2302
8418.00,0.2302
8417.00,0.2301
8416.00,0.2301
8415.00,0.2300
8414.00,0.2301
8413.00,0.2301
8412.00,0.2302
8411.00,0.2303
8410.00,0.2304
8409.00,0.2305
8408.00,0.2306
8407.00,0.2307
8406.00,0.2307
8405.00,0.2307
8404.00,0.2307
8403.00,0.2307
8402.00,0.2307
8401.00,0.2307
8400.00,0.2307
8399.00,0.2307
8398.00,0.2307
8397.00,0.2307
8396.00,0.2307
8395.00,0.2308
8394.00,0.2308
8393.00,0.2309
8392.00,0.2310
8391.00,0.2310
8390.00,0.2310
8389.00,0.2310
8388.00,0.2310
8387.00,0.2311
8386.00,0.2311
8385.00,0.2310
8384.00,0.2310
8383.00,0.2309
8382.00,0.2309
8381.00,0.2310
8380.00,0.2310
8379.00,0.2311
8378.00,0.2311
8377.00,0.2312
8376.00,0.2313
8375.00,0.2313
8374.00,0.2313
8373.00,0.2314
8372.00,0.2314
8371.00,0.2315
8370.00,0.2316
8369.00,0.2315
8368.00,0.2314
8367.00,0.2313
8366.00,0.2313
8365.00,0.2313
8364.00,0.2313
8363.00,0.2314
8362.00,0.2314
8361.00,0.2314
8360.00,0.2314
8359.00,0.2315
8358.00,0.2315
8357.00,0.2316
8356.00,0.2317
8355.00,0.2318
8354.00,0.2319
8353.00,0.2319
8352.00,0.2320
8351.00,0.2321
8350.00,0.2321
8349.00,0.2320
8348.00,0.2320
8347.00,0.2320
8346.00,0.2320
8345.00,0.2320
8344.00,0.2320
8343.00,0.2319
8342.00,0.2318
8341.00,0.2318
8340.00,0.2319
8339.00,0.2320
8338.00,0.2320
8337.00,0.2320
8336.00,0.2319
8335.00,0.2318
8334.00,0.2318
8333.00,0.2318
8332.00,0.2318
8331.00,0.2318
8330.00,0.2318
8329.00,0.2318
8328.00,0.2318
8327.00,0.2319
8326.00,0.2319
8325.00,0.2320
8324.00,0.2320
8323.00,0.2319
8322.00,0.2319
8321.00,0.2318
8320.00,0.2318
8319.00,0.2318
8318.00,0.2318
8317.00,0.2318
8316.00,0.2318
8315.00,0.2319
8314.00,0.2319
8313.00,0.2320
8312.00,0.2320
8311.00,0.2319
8310.00,0.2319
8309.00,0.2319
8308.00,0.2319
8307.00,0.2319
8306.00,0.2319
8305.00,0.2318
8304.00,0.2318
8303.00,0.2319
8302.00,0.2319
8301.00,0.2319
8300.00,0.2319
8299.00,0.2319
8298.00,0.2319
8297.00,0.2319
8296.00,0.2319
8295.00,0.2319
8294.00,0.2319
8293.00,0.2319
8292.00,0.2319
8291.00,0.2319
8290.00,0.2319
8289.00,0.2319
8288.00,0.2319
8287.00,0.2319
8286.00,0.2319
8285.00,0.2319
8284.00,0.2318
8283.00,0.2318
8282.00,0.2319
8281.00,0.2319
8280.00,0.2318
8279.00,0.2318
8278.00,0.2318
8277.00,0.2318
8276.00,0.2318
8275.00,0.2318
8274.00,0.2318
8273.00,0.2317
8272.00,0.2317
8271.00,0.2317
8270.00,0.2317
8269.00,0.2317
8268.00,0.2317
8267.00,0.2317
8266.00,0.2317
8265.00,0.2317
8264.00,0.2316
8263.00,0.2315
8262.00,0.2314
8261.00,0.2314
8260.00,0.2315
8259.00,0.2315
8258.00,0.2316
8257.00,0.2315
8256.00,0.2315
8255.00,0.2316
8254.00,0.2316
8253.00,0.2316
8252.00,0.2316
8251.00,0.2315
8250.00,0.2314
8249.00,0.2313
8248.00,0.2313
8247.00,0.2312
8246.00,0.2313
8245.00,0.2314
8244.00,0.2314
8243.00,0.2314
8242.00,0.2314
8241.00,0.2313
8240.00,0.2314
8239.00,0.2314
8238.00,0.2314
8237.00,0.2314
8236.00,0.2314
8235.00,0.2314
8234.00,0.2314
8233.00,0.2313
8232.00,0.2312
8231.00,0.2312
8230.00,0.2312
8229.00,0.2311
8228.00,0.2311
8227.00,0.2310
8226.00,0.2309
8225.00,0.2308
8224.00,0.2308
8223.00,0.2308
8222.00,0.2308
8221.00,0.2308
8220.00,0.2307
8219.00,0.2306
8218.00,0.2306
8217.00,0.2306
8216.00,0.2306
8215.00,0.2306
8214.00,0.2307
8213.00,0.2307
8212.00,0.2307
8211.00,0.2307
8210.00,0.2306
8209.00,0.2305
8208.00,0.2303
8207.00,0.2302
8206.00,0.2301
8205.00,0.2300
8204.00,0.2300
8203.00,0.2300
8202.00,0.2301
8201.00,0.2302
8200.00,0.2302
8199.00,0.2302
8198.00,0.2302
8197.00,0.2302
8196.00,0.2302
8195.00,0.2301
8194.00,0.2301
8193.00,0.2300
8192.00,0.2299
8191.00,0.2299
8190.00,0.2299
8189.00,0.2299
8188.00,0.2299
8187.00,0.2299
8186.00,0.2299
8185.00,0.2299
8184.00,0.2299
8183.00,0.2299
8182.00,0.2298
8181.00,0.2298
8180.00,0.2297
8179.00,0.2296
8178.00,0.2295
8177.00,0.2294
8176.00,0.2294
8175.00,0.2293
8174.00,0.2293
8173.00,0.2293
8172.00,0.2293
8171.00,0.2293
8170.00,0.2292
8169.00,0.2292
8168.00,0.2292
8167.00,0.2292
8166.00,0.2292
8165.00,0.2293
8164.00,0.2293
8163.00,0.2292
8162.00,0.2292
8161.00,0.2291
8160.00,0.2291
8159.00,0.2290
8158.00,0.2289
8157.00,0.2288
8156.00,0.2288
8155.00,0.2288
8154.00,0.2288
8153.00,0.2288
8152.00,0.2288
8151.00,0.2289
8150.00,0.2289
8149.00,0.2288
8148.00,0.2288
8147.00,0.2287
8146.00,0.2286
8145.00,0.2285
8144.00,0.2284
8143.00,0.2283
8142.00,0.2282
8141.00,0.2281
8140.00,0.2281
8139.00,0.2281
8138.00,0.2281
8137.00,0.2281
8136.00,0.2281
8135.00,0.2281
8134.00,0.2281
8133.00,0.2281
8132.00,0.2281
8131.00,0.2281
8130.00,0.2281
8129.00,0.2281
8128.00,0.2281
8127.00,0.2281
8126.00,0.2280
8125.00,0.2280
8124.00,0.2280
8123.00,0.2280
8122.00,0.2279
8121.00,0.2279
8120.00,0.2278
8119.00,0.2277
8118.00,0.2276
8117.00,0.2275
8116.00,0.2275
8115.00,0.2275
8114.00,0.2275
8113.00,0.2274
8112.00,0.2274
8111.00,0.2273
8110.00,0.2273
8109.00,0.2273
8108.00,0.2272
8107.00,0.2272
8106.00,0.2272
8105.00,0.2272
8104.00,0.2271
8103.00,0.2270
8102.00,0.2270
8101.00,0.2269
8100.00,0.2269
8099.00,0.2269
8098.00,0.2269
8097.00,0.2268
8096.00,0.2267
8095.00,0.2267
8094.00,0.2268
8093.00,0.2268
8092.00,0.2268
8091.00,0.2267
8090.00,0.2266
8089.00,0.2265
8088.00,0.2264
8087.00,0.2263
8086.00,0.2262
8085.00,0.2262
8084.00,0.2262
8083.00,0.2261
8082.00,0.2261
8081.00,0.2261
8080.00,0.2261
8079.00,0.2262
8078.00,0.2262
8077.00,0.2262
8076.00,0.2261
8075.00,0.2260
8074.00,0.2259
8073.00,0.2259
8072.00,0.2259
8071.00,0.2259
8070.00,0.2259
8069.00,0.2259
8068.00,0.2259
8067.00,0.2259
8066.00,0.2259
8065.00,0.2258
8064.00,0.2257
8063.00,0.2256
8062.00,0.2255
8061.00,0.2255
8060.00,0.2256
8059.00,0.2255
8058.00,0.2255
8057.00,0.2254
8056.00,0.2254
8055.00,0.2255
8054.00,0.2255
8053.00,0.2254
8052.00,0.2253
8051.00,0.2252
8050.00,0.2251
8049.00,0.2252
8048.00,0.2252
8047.00,0.2252
8046.00,0.2251
8045.00,0.2250
8044.00,0.2250
8043.00,0.2250
8042.00,0.2249
8041.00,0.2249
8040.00,0.2249
8039.00,0.2249
8038.00,0.2249
8037.00,0.2249
8036.00,0.2249
8035.00,0.2249
8034.00,0.2249
8033.00,0.2249
8032.00,0.2248
8031.00,0.2248
8030.00,0.2247
8029.00,0.2247
8028.00,0.2247
8027.00,0.2246
8026.00,0.2246
8025.00,0.2246
8024.00,0.2245
8023.00,0.2245
8022.00,0.2244
8021.00,0.2243
8020.00,0.2242
8019.00,0.2242
8018.00,0.2241
8017.00,0.2241
8016.00,0.2241
8015.00,0.2241
8014.00,0.2241
8013.00,0.2241
8012.00,0.2241
8011.00,0.2241
8010.00,0.2241
8009.00,0.2241
8008.00,0.2242
8007.00,0.2242
8006.00,0.2241
8005.00,0.2241
8004.00,0.2240
8003.00,0.2240
8002.00,0.2240
8001.00,0.2240
8000.00,0.2239
7999.00,0.2238
7998.00,0.2237
7997.00,0.2237
7996.00,0.2237
7995.00,0.2238
7994.00,0.2238
7993.00,0.2237
7992.00,0.2237
7991.00,0.2237
7990.00,0.2238
7989.00,0.2238
7988.00,0.2237
7987.00,0.2236
7986.00,0.2235
7985.00,0.2234
7984.00,0.2233
7983.00,0.2233
7982.00,0.2233
7981.00,0.2232
7980.00,0.2231
7979.00,0.2231
7978.00,0.2231
7977.00,0.2232
7976.00,0.2232
7975.00,0.2232
7974.00,0.2232
7973.00,0.2231
7972.00,0.2231
7971.00,0.2231
7970.00,0.2231
7969.00,0.2230
7968.00,0.2230
7967.00,0.2229
7966.00,0.2228
7965.00,0.2228
7964.00,0.2228
7963.00,0.2228
7962.00,0.2227
7961.00,0.2227
7960.00,0.2226
7959.00,0.2226
7958.00,0.2226
7957.00,0.2226
7956.00,0.2226
7955.00,0.2227
7954.00,0.2227
7953.00,0.2227
7952.00,0.2227
7951.00,0.2227
7950.00,0.2227
7949.00,0.2227
7948.00,0.2226
7947.00,0.2226
7946.00,0.2225
7945.00,0.2224
7944.00,0.2223
7943.00,0.2222
7942.00,0.2222
7941.00,0.2222
7940.00,0.2222
7939.00,0.2222
7938.00,0.2222
7937.00,0.2222
7936.00,0.2223
7935.00,0.2223
7934.00,0.2223
7933.00,0.2223
7932.00,0.2222
7931.00,0.2222
7930.00,0.2221
7929.00,0.2221
7928.00,0.2221
7927.00,0.2221
7926.00,0.2221
7925.00,0.2221
7924.00,0.2222
7923.00,0.2222
7922.00,0.2222
7921.00,0.2222
7920.00,0.2221
7919.00,0.2220
7918.00,0.2219
7917.00,0.2219
7916.00,0.2218
7915.00,0.2218
7914.00,0.2217
7913.00,0.2217
7912.00,0.2217
7911.00,0.2217
7910.00,0.2217
7909.00,0.2217
7908.00,0.2217
7907.00,0.2216
7906.00,0.2215
7905.00,0.2215
7904.00,0.2215
7903.00,0.2215
7902.00,0.2215
7901.00,0.2215
7900.00,0.2215
7899.00,0.2215
7898.00,0.2215
7897.00,0.2215
7896.00,0.2215
7895.00,0.2214
7894.00,0.2213
7893.00,0.2213
7892.00,0.2212
7891.00,0.2212
7890.00,0.2212
7889.00,0.2212
7888.00,0.2212
7887.00,0.2212
7886.00,0.2212
7885.00,0.2212
7884.00,0.2212
7883.00,0.2211
7882.00,0.2210
7881.00,0.2209
7880.00,0.2209
7879.00,0.2209
7878.00,0.2209
7877.00,0.2209
7876.00,0.2210
7875.00,0.2209
7874.00,0.2209
7873.00,0.2208
7872.00,0.2208
7871.00,0.2207
7870.00,0.2206
7869.00,0.2205
7868.00,0.2204
7867.00,0.2203
7866.00,0.2203
7865.00,0.2203
7864.00,0.2203
7863.00,0.2204
7862.00,0.2204
7861.00,0.2204
7860.00,0.2203
7859.00,0.2203
7858.00,0.2203
7857.00,0.2203
7856.00,0.2203
7855.00,0.2203
7854.00,0.2202
7853.00,0.2201
7852.00,0.2201
7851.00,0.2202
7850.00,0.2202
7849.00,0.2202
7848.00,0.2202
7847.00,0.2201
7846.00,0.2201
7845.00,0.2201
7844.00,0.2201
7843.00,0.2200
7842.00,0.2199
7841.00,0.2199
7840.00,0.2199
7839.00,0.2199
7838.00,0.2198
7837.00,0.2198
7836.00,0.2198
7835.00,0.2199
7834.00,0.2199
7833.00,0.2198
7832.00,0.2198
7831.00,0.2197
7830.00,0.2197
7829.00,0.2196
7828.00,0.2195
7827.00,0.2194
7826.00,0.2194
7825.00,0.2193
7824.00,0.2193
7823.00,0.2193
7822.00,0.2192
7821.00,0.2192
7820.00,0.2192
7819.00,0.2192
7818.00,0.2192
7817.00,0.2192
7816.00,0.2192
7815.00,0.2193
7814.00,0.2192
7813.00,0.2191
7812.00,0.2191
7811.00,0.2190
7810.00,0.2191
7809.00,0.2191
7808.00,0.2190
7807.00,0.2190
7806.00,0.2189
7805.00,0.2188
7804.00,0.2188
7803.00,0.2188
7802.00,0.2188
7801.00,0.2187
7800.00,0.2186
7799.00,0.2185
7798.00,0.2185
7797.00,0.2185
7796.00,0.2185
7795.00,0.2185
7794.00,0.2185
7793.00,0.2184
7792.00,0.2184
7791.00,0.2183
7790.00,0.2183
7789.00,0.2183
7788.00,0.2183
7787.00,0.2183
7786.00,0.2183
7785.00,0.2182
7784.00,0.2182
7783.00,0.2182
7782.00,0.2181
7781.00,0.2181
7780.00,0.2181
7779.00,0.2181
7778.00,0.2181
7777.00,0.2180
7776.00,0.2180
7775.00,0.2180
7774.00,0.2180
7773.00,0.2180
7772.00,0.2179
7771.00,0.2178
7770.00,0.2177
7769.00,0.2177
7768.00,0.2177
7767.00,0.2176
7766.00,0.2176
7765.00,0.2175
7764.00,0.2175
7763.00,0.2175
7762.00,0.2174
7761.00,0.2174
7760.00,0.2173
7759.00,0.2173
7758.00,0.2172
7757.00,0.2171
7756.00,0.2171
7755.00,0.2171
7754.00,0.2171
7753.00,0.2171
7752.00,0.2170
7751.00,0.2170
7750.00,0.2170
7749.00,0.2170
7748.00,0.2170
7747.00,0.2170
7746.00,0.2169
7745.00,0.2169
7744.00,0.2169
7743.00,0.2168
7742.00,0.2169
7741.00,0.2169
7740.00,0.2169
7739.00,0.2169
7738.00,0.2168
7737.00,0.2167
7736.00,0.2166
7735.00,0.2165
7734.00,0.2165
7733.00,0.2165
7732.00,0.2164
7731.00,0.2163
7730.00,0.2163
7729.00,0.2164
7728.00,0.2164
7727.00,0.2164
7726.00,0.2163
7725.00,0.2163
7724.00,0.2162
7723.00,0.2163
7722.00,0.2163
7721.00,0.2162
7720.00,0.2162
7719.00,0.2161
7718.00,0.2161
7717.00,0.2162
7716.00,0.2162
7715.00,0.2161
7714.00,0.2161
7713.00,0.2161
7712.00,0.2161
7711.00,0.2161
7710.00,0.2161
7709.00,0.2160
7708.00,0.2160
7707.00,0.2159
7706.00,0.2159
7705.00,0.2158
7704.00,0.2158
7703.00,0.2158
7702.00,0.2158
7701.00,0.2158
7700.00,0.2158
7699.00,0.2158
7698.00,0.2158
7697.00,0.2158
7696.00,0.2158
7695.00,0.2157
7694.00,0.2156
7693.00,0.2156
7692.00,0.2156
7691.00,0.2156
7690.00,0.2156
7689.00,0.2156
7688.00,0.2156
7687.00,0.2155
7686.00,0.2155
7685.00,0.2154
7684.00,0.2154
7683.00,0.2154
7682.00,0.2154
7681.00,0.2154
7680.00,0.2154
7679.00,0.2154
7678.00,0.2154
7677.00,0.2154
7676.00,0.2154
7675.00,0.2154
7674.00,0.2153
7673.00,0.2153
7672.00,0.2153
7671.00,0.2153
7670.00,0.2153
7669.00,0.2153
7668.00,0.2153
7667.00,0.2154
7666.00,0.2154
7665.00,0.2154
7664.00,0.2154
7663.00,0.2153
7662.00,0.2153
7661.00,0.2152
7660.00,0.2152
7659.00,0.2152
7658.00,0.2152
7657.00,0.2152
7656.00,0.2152
7655.00,0.2152
7654.00,0.2152
7653.00,0.2153
7652.00,0.2154
7651.00,0.2154
7650.00,0.2154
7649.00,0.2153
7648.00,0.2153
7647.00,0.2153
7646.00,0.2152
7645.00,0.2151
7644.00,0.2150
7643.00,0.2150
7642.00,0.2150
7641.00,0.2151
7640.00,0.2151
7639.00,0.2152
7638.00,0.2152
7637.00,0.2152
7636.00,0.2152
7635.00,0.2151
7634.00,0.2151
7633.00,0.2150
7632.00,0.2150
7631.00,0.2150
7630.00,0.2150
7629.00,0.2150
7628.00,0.2151
7627.00,0.2152
7626.00,0.2152
7625.00,0.2151
7624.00,0.2151
7623.00,0.2151
7622.00,0.2151
7621.00,0.2151
7620.00,0.2151
7619.00,0.2151
7618.00,0.2151
7617.00,0.2151
7616.00,0.2151
7615.00,0.2151
7614.00,0.2151
7613.00,0.2151
7612.00,0.2151
7611.00,0.2152
7610.00,0.2152
7609.00,0.2152
7608.00,0.2153
7607.00,0.2153
7606.00,0.2153
7605.00,0.2153
7604.00,0.2152
7603.00,0.2152
7602.00,0.2151
7601.00,0.2152
7600.00,0.2153
7599.00,0.2153
7598.00,0.2154
7597.00,0.2154
7596.00,0.2155
7595.00,0.2155
7594.00,0.2155
7593.00,0.2155
7592.00,0.2155
7591.00,0.2154
7590.00,0.2154
7589.00,0.2155
7588.00,0.2155
7587.00,0.2156
7586.00,0.2156
7585.00,0.2156
7584.00,0.2156
7583.00,0.2156
7582.00,0.2157
7581.00,0.2157
7580.00,0.2157
7579.00,0.2157
7578.00,0.2157
7577.00,0.2157
7576.00,0.2158
7575.00,0.2159
7574.00,0.2159
7573.00,0.2159
7572.00,0.2159
7571.00,0.2160
7570.00,0.2160
7569.00,0.2161
7568.00,0.2161
7567.00,0.2160
7566.00,0.2159
7565.00,0.2159
7564.00,0.2160
7563.00,0.2160
7562.00,0.2161
7561.00,0.2161
7560.00,0.2161
7559.00,0.2162
7558.00,0.2163
7557.00,0.2164
7556.00,0.2164
7555.00,0.2165
7554.00,0.2165
7553.00,0.2165
7552.00,0.2164
7551.00,0.2165
7550.00,0.2165
7549.00,0.2166
7548.00,0.2167
7547.00,0.2167
7546.00,0.2168
7545.00,0.2169
7544.00,0.2170
7543.00,0.2170
7542.00,0.2171
7541.00,0.2172
7540.00,0.2172
7539.00,0.2172
7538.00,0.2173
7537.00,0.2173
7536.00,0.2174
7535.00,0.2175
7534.00,0.2176
7533.00,0.2176
7532.00,0.2177
7531.00,0.2177
7530.00,0.2178
7529.00,0.2178
7528.00,0.2179
7527.00,0.2179
7526.00,0.2180
7525.00,0.2181
7524.00,0.2182
7523.00,0.2182
7522.00,0.2183
7521.00,0.2183
7520.00,0.2184
7519.00,0.2184
7518.00,0.2184
7517.00,0.2185
7516.00,0.2185
7515.00,0.2186
7514.00,0.2187
7513.00,0.2187
7512.00,0.2188
7511.00,0.2189
7510.00,0.2190
7509.00,0.2190
7508.00,0.2191
7507.00,0.2192
7506.00,0.2193
7505.00,0.2194
7504.00,0.2196
7503.00,0.2197
7502.00,0.2197
7501.00,0.2198
7500.00,0.2198
7499.00,0.2199
7498.00,0.2201
7497.00,0.2202
7496.00,0.2202
7495.00,0.2202
7494.00,0.2203
7493.00,0.2204
7492.00,0.2204
7491.00,0.2205
7490.00,0.2205
7489.00,0.2206
7488.00,0.2207
7487.00,0.2208
7486.00,0.2209
7485.00,0.2210
7484.00,0.2210
7483.00,0.2211
7482.00,0.2212
7481.00,0.2213
7480.00,0.2214
7479.00,0.2215
7478.00,0.2217
7477.00,0.2218
7476.00,0.2219
7475.00,0.2220
7474.00,0.2220
7473.00,0.2221
7472.00,0.2221
7471.00,0.2222
7470.00,0.2222
7469.00,0.2223
7468.00,0.2224
7467.00,0.2225
7466.00,0.2227
7465.00,0.2228
7464.00,0.2229
7463.00,0.2230
7462.00,0.2231
7461.00,0.2232
7460.00,0.2233
7459.00,0.2234
7458.00,0.2235
7457.00,0.2236
7456.00,0.2237
7455.00,0.2238
7454.00,0.2240
7453.00,0.2241
7452.00,0.2243
7451.00,0.2244
7450.00,0.2245
7449.00,0.2245
7448.00,0.2247
7447.00,0.2248
7446.00,0.2249
7445.00,0.2251
7444.00,0.2252
7443.00,0.2253
7442.00,0.2255
7441.00,0.2256
7440.00,0.2257
7439.00,0.2258
7438.00,0.2258
7437.00,0.2259
7436.00,0.2260
7435.00,0.2262
7434.00,0.2263
7433.00,0.2264
7432.00,0.2265
7431.00,0.2266
7430.00,0.2268
7429.00,0.2269
7428.00,0.2270
7427.00,0.2271
7426.00,0.2273
7425.00,0.2275
7424.00,0.2278
7423.00,0.2280
7422.00,0.2282
7421.00,0.2283
7420.00,0.2285
7419.00,0.2286
7418.00,0.2287
7417.00,0.2288
7416.00,0.2288
7415.00,0.2288
7414.00,0.2289
7413.00,0.2290
7412.00,0.2292
7411.00,0.2294
7410.00,0.2297
7409.00,0.2299
7408.00,0.2300
7407.00,0.2301
7406.00,0.2302
7405.00,0.2303
7404.00,0.2304
7403.00,0.2305
7402.00,0.2306
7401.00,0.2307
7400.00,0.2309
7399.00,0.2312
7398.00,0.2314
7397.00,0.2316
7396.00,0.2318
7395.00,0.2319
7394.00,0.2320
7393.00,0.2321
7392.00,0.2322
7391.00,0.2323
7390.00,0.2324
7389.00,0.2326
7388.00,0.2329
7387.00,0.2332
7386.00,0.2336
7385.00,0.2339
7384.00,0.2342
7383.00,0.2344
7382.00,0.2346
7381.00,0.2350
7380.00,0.2353
7379.00,0.2353
7378.00,0.2350
7377.00,0.2346
7376.00,0.2345
7375.00,0.2346
7374.00,0.2349
7373.00,0.2351
7372.00,0.2351
7371.00,0.2352
7370.00,0.2354
7369.00,0.2358
7368.00,0.2361
7367.00,0.2363
7366.00,0.2362
7365.00,0.2361
7364.00,0.2360
7363.00,0.2361
7362.00,0.2364
7361.00,0.2369
7360.00,0.2374
7359.00,0.2377
7358.00,0.2377
7357.00,0.2377
7356.00,0.2377
7355.00,0.2379
7354.00,0.2382
7353.00,0.2383
7352.00,0.2384
7351.00,0.2385
7350.00,0.2388
7349.00,0.2393
7348.00,0.2399
7347.00,0.2404
7346.00,0.2407
7345.00,0.2410
7344.00,0.2412
7343.00,0.2411
7342.00,0.2408
7341.00,0.2404
7340.00,0.2400
7339.00,0.2396
7338.00,0.2392
7337.00,0.2388
7336.00,0.2386
7335.00,0.2389
7334.00,0.2395
7333.00,0.2404
7332.00,0.2411
7331.00,0.2415
7330.00,0.2416
7329.00,0.2417
7328.00,0.2417
7327.00,0.2417
7326.00,0.2413
7325.00,0.2408
7324.00,0.2403
7323.00,0.2402
7322.00,0.2403
7321.00,0.2405
7320.00,0.2406
7319.00,0.2407
7318.00,0.2409
7317.00,0.2413
7316.00,0.2418
7315.00,0.2423
7314.00,0.2425
7313.00,0.2426
7312.00,0.2428
7311.00,0.2431
7310.00,0.2431
7309.00,0.2428
7308.00,0.2423
7307.00,0.2421
7306.00,0.2421
7305.00,0.2422
7304.00,0.2422
7303.00,0.2422
7302.00,0.2423
7301.00,0.2425
7300.00,0.2429
7299.00,0.2433
7298.00,0.2436
7297.00,0.2435
7296.00,0.2432
7295.00,0.2430
7294.00,0.2430
7293.00,0.2432
7292.00,0.2432
7291.00,0.2430
7290.00,0.2428
7289.00,0.2427
7288.00,0.2428
7287.00,0.2430
7286.00,0.2431
7285.00,0.2430
7284.00,0.2428
7283.00,0.2428
7282.00,0.2429
7281.00,0.2430
7280.00,0.2431
7279.00,0.2432
7278.00,0.2432
7277.00,0.2433
7276.00,0.2434
7275.00,0.2434
7274.00,0.2434
7273.00,0.2434
7272.00,0.2435
7271.00,0.2434
7270.00,0.2434
7269.00,0.2434
7268.00,0.2436
7267.00,0.2440
7266.00,0.2442
7265.00,0.2443
7264.00,0.2441
7263.00,0.2440
7262.00,0.2440
7261.00,0.2440
7260.00,0.2440
7259.00,0.2441
7258.00,0.2444
7257.00,0.2447
7256.00,0.2450
7255.00,0.2451
7254.00,0.2451
7253.00,0.2451
7252.00,0.2450
7251.00,0.2449
7250.00,0.2450
7249.00,0.2454
7248.00,0.2461
7247.00,0.2470
7246.00,0.2477
7245.00,0.2479
7244.00,0.2478
7243.00,0.2475
7242.00,0.2471
7241.00,0.2467
7240.00,0.2463
7239.00,0.2464
7238.00,0.2470
7237.00,0.2480
7236.00,0.2491
7235.00,0.2496
7234.00,0.2496
7233.00,0.2494
7232.00,0.2492
7231.00,0.2488
7230.00,0.2483
7229.00,0.2476
7228.00,0.2471
7227.00,0.2471
7226.00,0.2475
7225.00,0.2480
7224.00,0.2485
7223.00,0.2486
7222.00,0.2486
7221.00,0.2488
7220.00,0.2490
7219.00,0.2493
7218.00,0.2493
7217.00,0.2492
7216.00,0.2490
7215.00,0.2489
7214.00,0.2489
7213.00,0.2490
7212.00,0.2491
7211.00,0.2494
7210.00,0.2499
7209.00,0.2505
7208.00,0.2510
7207.00,0.2514
7206.00,0.2515
7205.00,0.2516
7204.00,0.2515
7203.00,0.2514
7202.00,0.2512
7201.00,0.2510
7200.00,0.2510
7199.00,0.2512
7198.00,0.2515
7197.00,0.2518
7196.00,0.2520
7195.00,0.2522
7194.00,0.2523
7193.00,0.2524
7192.00,0.2525
7191.00,0.2526
7190.00,0.2530
7189.00,0.2534
7188.00,0.2540
7187.00,0.2547
7186.00,0.2554
7185.00,0.2559
7184.00,0.2561
7183.00,0.2561
7182.00,0.2561
7181.00,0.2560
7180.00,0.2558
7179.00,0.2556
7178.00,0.2555
7177.00,0.2557
7176.00,0.2560
7175.00,0.2566
7174.00,0.2574
7173.00,0.2580
7172.00,0.2586
7171.00,0.2589
7170.00,0.2592
7169.00,0.2595
7168.00,0.2597
7167.00,0.2600
7166.00,0.2604
7165.00,0.2607
7164.00,0.2608
7163.00,0.2609
7162.00,0.2609
7161.00,0.2611
7160.00,0.2612
7159.00,0.2611
7158.00,0.2610
7157.00,0.2609
7156.00,0.2610
7155.00,0.2613
7154.00,0.2616
7153.00,0.2620
7152.00,0.2624
7151.00,0.2629
7150.00,0.2635
7149.00,0.2642
7148.00,0.2647
7147.00,0.2653
7146.00,0.2659
7145.00,0.2665
7144.00,0.2671
7143.00,0.2675
7142.00,0.2676
7141.00,0.2677
7140.00,0.2679
7139.00,0.2681
7138.00,0.2682
7137.00,0.2682
7136.00,0.2681
7135.00,0.2681
7134.00,0.2683
7133.00,0.2686
7132.00,0.2689
7131.00,0.2692
7130.00,0.2696
7129.00,0.2700
7128.00,0.2704
7127.00,0.2709
7126.00,0.2713
7125.00,0.2719
7124.00,0.2725
7123.00,0.2734
7122.00,0.2743
7121.00,0.2750
7120.00,0.2754
7119.00,0.2755
7118.00,0.2756
7117.00,0.2756
7116.00,0.2756
7115.00,0.2754
7114.00,0.2754
7113.00,0.2758
7112.00,0.2765
7111.00,0.2774
7110.00,0.2782
7109.00,0.2789
7108.00,0.2793
7107.00,0.2795
7106.00,0.2797
7105.00,0.2799
7104.00,0.2801
7103.00,0.2803
7102.00,0.2807
7101.00,0.2814
7100.00,0.2823
7099.00,0.2832
7098.00,0.2839
7097.00,0.2843
7096.00,0.2846
7095.00,0.2848
7094.00,0.2850
7093.00,0.2852
7092.00,0.2853
7091.00,0.2856
7090.00,0.2860
7089.00,0.2865
7088.00,0.2871
7087.00,0.2877
7086.00,0.2882
7085.00,0.2887
7084.00,0.2892
7083.00,0.2896
7082.00,0.2900
7081.00,0.2904
7080.00,0.2909
7079.00,0.2914
7078.00,0.2920
7077.00,0.2926
7076.00,0.2933
7075.00,0.2941
7074.00,0.2948
7073.00,0.2955
7072.00,0.2960
7071.00,0.2965
7070.00,0.2968
7069.00,0.2971
7068.00,0.2974
7067.00,0.2977
7066.00,0.2981
7065.00,0.2986
7064.00,0.2991
7063.00,0.2996
7062.00,0.3001
7061.00,0.3006
7060.00,0.3012
7059.00,0.3018
7058.00,0.3025
7057.00,0.3031
7056.00,0.3036
7055.00,0.3041
7054.00,0.3047
7053.00,0.3053
7052.00,0.3060
7051.00,0.3066
7050.00,0.3072
7049.00,0.3077
7048.00,0.3083
7047.00,0.3088
7046.00,0.3093
7045.00,0.3097
7044.00,0.3101
7043.00,0.3105
7042.00,0.3110
7041.00,0.3116
7040.00,0.3122
7039.00,0.3128
7038.00,0.3133
7037.00,0.3138
7036.00,0.3143
7035.00,0.3148
7034.00,0.3154
7033.00,0.3160
7032.00,0.3166
7031.00,0.3172
7030.00,0.3178
7029.00,0.3184
7028.00,0.3190
7027.00,0.3196
7026.00,0.3202
7025.00,0.3207
7024.00,0.3211
7023.00,0.3215
7022.00,0.3220
7021.00,0.3225
7020.00,0.3230
7019.00,0.3235
7018.00,0.3240
7017.00,0.3246
7016.00,0.3251
7015.00,0.3256
7014.00,0.3261
7013.00,0.3265
7012.00,0.3270
7011.00,0.3275
7010.00,0.3280
7009.00,0.3285
7008.00,0.3290
7007.00,0.3296
7006.00,0.3302
7005.00,0.3307
7004.00,0.3313
7003.00,0.3317
7002.00,0.3323
7001.00,0.3328
7000.00,0.3332
6999.00,0.3336
6998.00,0.3341
6997.00,0.3345
6996.00,0.3349
6995.00,0.3354
6994.00,0.3358
6993.00,0.3362
6992.00,0.3367
6991.00,0.3372
6990.00,0.3377
6989.00,0.3382
6988.00,0.3387
6987.00,0.3392
6986.00,0.3397
6985.00,0.3402
6984.00,0.3406
6983.00,0.3410
6982.00,0.3413
6981.00,0.3416
6980.00,0.3420
6979.00,0.3423
6978.00,0.3426
6977.00,0.3431
6976.00,0.3435
6975.00,0.3440
6974.00,0.3444
6973.00,0.3448
6972.00,0.3451
6971.00,0.3454
6970.00,0.3458
6969.00,0.3460
6968.00,0.3464
6967.00,0.3467
6966.00,0.3471
6965.00,0.3475
6964.00,0.3479
6963.00,0.3483
6962.00,0.3486
6961.00,0.3489
6960.00,0.3493
6959.00,0.3497
6958.00,0.3501
6957.00,0.3505
6956.00,0.3507
6955.00,0.3510
6954.00,0.3513
6953.00,0.3515
6952.00,0.3518
6951.00,0.3520
6950.00,0.3523
6949.00,0.3527
6948.00,0.3530
6947.00,0.3532
6946.00,0.3535
6945.00,0.3537
6944.00,0.3539
6943.00,0.3542
6942.00,0.3545
6941.00,0.3548
6940.00,0.3551
6939.00,0.3554
6938.00,0.3557
6937.00,0.3560
6936.00,0.3563
6935.00,0.3565
6934.00,0.3567
6933.00,0.3569
6932.00,0.3572
6931.00,0.3574
6930.00,0.3576
6929.00,0.3578
6928.00,0.3579
6927.00,0.3581
6926.00,0.3583
6925.00,0.3585
6924.00,0.3588
6923.00,0.3590
6922.00,0.3594
6921.00,0.3597
6920.00,0.3600
6919.00,0.3602
6918.00,0.3604
6917.00,0.3606
6916.00,0.3607
6915.00,0.3608
6914.00,0.3609
6913.00,0.3609
6912.00,0.3610
6911.00,0.3611
6910.00,0.3613
6909.00,0.3615
6908.00,0.3617
6907.00,0.3618
6906.00,0.3619
6905.00,0.3621
6904.00,0.3623
6903.00,0.3625
6902.00,0.3626
6901.00,0.3628
6900.00,0.3630
6899.00,0.3632
6898.00,0.3634
6897.00,0.3636
6896.00,0.3638
6895.00,0.3639
6894.00,0.3640
6893.00,0.3641
6892.00,0.3641
6891.00,0.3642
6890.00,0.3643
6889.00,0.3644
6888.00,0.3645
6887.00,0.3646
6886.00,0.3648
6885.00,0.3650
6884.00,0.3651
6883.00,0.3652
6882.00,0.3653
6881.00,0.3653
6880.00,0.3655
6879.00,0.3656
6878.00,0.3656
6877.00,0.3657
6876.00,0.3658
6875.00,0.3659
6874.00,0.3660
6873.00,0.3661
6872.00,0.3663
6871.00,0.3664
6870.00,0.3665
6869.00,0.3666
6868.00,0.3667
6867.00,0.3667
6866.00,0.3668
6865.00,0.3669
6864.00,0.3670
6863.00,0.3671
6862.00,0.3671
6861.00,0.3672
6860.00,0.3673
6859.00,0.3674
6858.00,0.3674
6857.00,0.3675
6856.00,0.3676
6855.00,0.3676
6854.00,0.3677
6853.00,0.3678
6852.00,0.3679
6851.00,0.3679
6850.00,0.3680
6849.00,0.3681
6848.00,0.3682
6847.00,0.3683
6846.00,0.3683
6845.00,0.3684
6844.00,0.3684
6843.00,0.3684
6842.00,0.3684
6841.00,0.3684
6840.00,0.3684
6839.00,0.3685
6838.00,0.3686
6837.00,0.3687
6836.00,0.3688
6835.00,0.3688
6834.00,0.3689
6833.00,0.3689
6832.00,0.3689
6831.00,0.3689
6830.00,0.3690
6829.00,0.3691
6828.00,0.3692
6827.00,0.3693
6826.00,0.3693
6825.00,0.3693
6824.00,0.3693
6823.00,0.3693
6822.00,0.3693
6821.00,0.3693
6820.00,0.3694
6819.00,0.3695
6818.00,0.3695
6817.00,0.3696
6816.00,0.3696
6815.00,0.3696
6814.00,0.3696
6813.00,0.3696
6812.00,0.3696
6811.00,0.3697
6810.00,0.3697
6809.00,0.3698
6808.00,0.3699
6807.00,0.3699
6806.00,0.3699
6805.00,0.3699
6804.00,0.3700
6803.00,0.3700
6802.00,0.3700
6801.00,0.3699
6800.00,0.3699
6799.00,0.3699
6798.00,0.3698
6797.00,0.3698
6796.00,0.3698
6795.00,0.3698
6794.00,0.3697
6793.00,0.3697
6792.00,0.3697
6791.00,0.3697
6790.00,0.3697
6789.00,0.3696
6788.00,0.3695
6787.00,0.3695
6786.00,0.3695
6785.00,0.3695
6784.00,0.3695
6783.00,0.3694
6782.00,0.3694
6781.00,0.3694
6780.00,0.3694
6779.00,0.3694
6778.00,0.3694
6777.00,0.3694
6776.00,0.3694
6775.00,0.3694
6774.00,0.3694
6773.00,0.3694
6772.00,0.3694
6771.00,0.3693
6770.00,0.3693
6769.00,0.3692
6768.00,0.3691
6767.00,0.3691
6766.00,0.3690
6765.00,0.3690
6764.00,0.3690
6763.00,0.3690
6762.00,0.3689
6761.00,0.3689
6760.00,0.3689
6759.00,0.3689
6758.00,0.3689
6757.00,0.3688
6756.00,0.3688
6755.00,0.3687
6754.00,0.3687
6753.00,0.3687
6752.00,0.3687
6751.00,0.3686
6750.00,0.3685
6749.00,0.3684
6748.00,0.3684
6747.00,0.3683
6746.00,0.3683
6745.00,0.3682
6744.00,0.3681
6743.00,0.3681
6742.00,0.3680
6741.00,0.3679
6740.00,0.3678
6739.00,0.3677
6738.00,0.3676
6737.00,0.3676
6736.00,0.3675
6735.00,0.3675
6734.00,0.3675
6733.00,0.3674
6732.00,0.3674
6731.00,0.3673
6730.00,0.3673
6729.00,0.3672
6728.00,0.3671
6727.00,0.3670
6726.00,0.3669
6725.00,0.3669
6724.00,0.3668
6723.00,0.3668
6722.00,0.3667
6721.00,0.3666
6720.00,0.3666
6719.00,0.3665
6718.00,0.3664
6717.00,0.3663
6716.00,0.3661
6715.00,0.3661
6714.00,0.3660
6713.00,0.3660
6712.00,0.3660
6711.00,0.3659
6710.00,0.3658
6709.00,0.3657
6708.00,0.3657
6707.00,0.3656
6706.00,0.3655
6705.00,0.3654
6704.00,0.3652
6703.00,0.3651
6702.00,0.3651
6701.00,0.3650
6700.00,0.3649
6699.00,0.3648
6698.00,0.3646
6697.00,0.3646
6696.00,0.3646
6695.00,0.3645
6694.00,0.3645
6693.00,0.3644
6692.00,0.3644
6691.00,0.3643
6690.00,0.3643
6689.00,0.3642
6688.00,0.3641
6687.00,0.3640
6686.00,0.3639
6685.00,0.3638
6684.00,0.3637
6683.00,0.3636
6682.00,0.3635
6681.00,0.3633
6680.00,0.3632
6679.00,0.3632
6678.00,0.3631
6677.00,0.3631
6676.00,0.3630
6675.00,0.3630
6674.00,0.3629
6673.00,0.3628
6672.00,0.3627
6671.00,0.3626
6670.00,0.3625
6669.00,0.3624
6668.00,0.3624
6667.00,0.3623
6666.00,0.3622
6665.00,0.3621
6664.00,0.3620
6663.00,0.3619
6662.00,0.3618
6661.00,0.3617
6660.00,0.3616
6659.00,0.3616
6658.00,0.3615
6657.00,0.3615
6656.00,0.3614
6655.00,0.3614
6654.00,0.3613
6653.00,0.3612
6652.00,0.3610
6651.00,0.3609
6650.00,0.3608
6649.00,0.3607
6648.00,0.3605
6647.00,0.3604
6646.00,0.3604
6645.00,0.3603
6644.00,0.3603
6643.00,0.3602
6642.00,0.3601
6641.00,0.3600
6640.00,0.3599
6639.00,0.3597
6638.00,0.3596
6637.00,0.3595
6636.00,0.3594
6635.00,0.3593
6634.00,0.3592
6633.00,0.3591
6632.00,0.3591
6631.00,0.3590
6630.00,0.3589
6629.00,0.3588
6628.00,0.3586
6627.00,0.3586
6626.00,0.3585
6625.00,0.3584
6624.00,0.3583
6623.00,0.3582
6622.00,0.3581
6621.00,0.3580
6620.00,0.3579
6619.00,0.3578
6618.00,0.3578
6617.00,0.3577
6616.00,0.3576
6615.00,0.3575
6614.00,0.3574
6613.00,0.3573
6612.00,0.3572
6611.00,0.3571
6610.00,0.3570
6609.00,0.3569
6608.00,0.3568
6607.00,0.3568
6606.00,0.3567
6605.00,0.3565
6604.00,0.3564
6603.00,0.3562
6602.00,0.3561
6601.00,0.3560
6600.00,0.3560
6599.00,0.3559
6598.00,0.3558
6597.00,0.3558
6596.00,0.3557
6595.00,0.3557
6594.00,0.3556
6593.00,0.3555
6592.00,0.3554
6591.00,0.3553
6590.00,0.3552
6589.00,0.3551
6588.00,0.3550
6587.00,0.3549
6586.00,0.3548
6585.00,0.3548
6584.00,0.3547
6583.00,0.3547
6582.00,0.3546
6581.00,0.3546
6580.00,0.3545
6579.00,0.3544
6578.00,0.3543
6577.00,0.3542
6576.00,0.3541
6575.00,0.3540
6574.00,0.3539
6573.00,0.3539
6572.00,0.3538
6571.00,0.3538
6570.00,0.3537
6569.00,0.3537
6568.00,0.3536
6567.00,0.3535
6566.00,0.3535
6565.00,0.3534
6564.00,0.3533
6563.00,0.3533
6562.00,0.3532
6561.00,0.3531
6560.00,0.3530
6559.00,0.3529
6558.00,0.3528
6557.00,0.3528
6556.00,0.3527
6555.00,0.3527
6554.00,0.3526
6553.00,0.3526
6552.00,0.3526
6551.00,0.3525
6550.00,0.3524
6549.00,0.3524
6548.00,0.3523
6547.00,0.3522
6546.00,0.3521
6545.00,0.3521
6544.00,0.3520
6543.00,0.3519
6542.00,0.3518
6541.00,0.3518
6540.00,0.3518
6539.00,0.3517
6538.00,0.3517
6537.00,0.3516
6536.00,0.3516
6535.00,0.3516
6534.00,0.3515
6533.00,0.3515
6532.00,0.3514
6531.00,0.3514
6530.00,0.3514
6529.00,0.3513
6528.00,0.3513
6527.00,0.3512
6526.00,0.3512
6525.00,0.3511
6524.00,0.3510
6523.00,0.3510
6522.00,0.3509
6521.00,0.3509
6520.00,0.3509
6519.00,0.3508
6518.00,0.3508
6517.00,0.3508
6516.00,0.3508
6515.00,0.3508
6514.00,0.3508
6513.00,0.3508
6512.00,0.3508
6511.00,0.3507
6510.00,0.3507
6509.00,0.3507
6508.00,0.3507
6507.00,0.3507
6506.00,0.3506
6505.00,0.3506
6504.00,0.3506
6503.00,0.3506
6502.00,0.3506
6501.00,0.3506
6500.00,0.3505
6499.00,0.3505
6498.00,0.3505
6497.00,0.3504
6496.00,0.3504
6495.00,0.3504
6494.00,0.3505
6493.00,0.3505
6492.00,0.3505
6491.00,0.3505
6490.00,0.3505
6489.00,0.3504
6488.00,0.3504
6487.00,0.3504
6486.00,0.3503
6485.00,0.3503
6484.00,0.3503
6483.00,0.3503
6482.00,0.3503
6481.00,0.3503
6480.00,0.3503
6479.00,0.3503
6478.00,0.3503
6477.00,0.3503
6476.00,0.3503
6475.00,0.3503
6474.00,0.3503
6473.00,0.3503
6472.00,0.3503
6471.00,0.3503
6470.00,0.3504
6469.00,0.3504
6468.00,0.3505
6467.00,0.3505
6466.00,0.3505
6465.00,0.3505
6464.00,0.3505
6463.00,0.3505
6462.00,0.3505
6461.00,0.3505
6460.00,0.3505
6459.00,0.3505
6458.00,0.3505
6457.00,0.3505
6456.00,0.3504
6455.00,0.3504
6454.00,0.3504
6453.00,0.3504
6452.00,0.3504
6451.00,0.3504
6450.00,0.3504
6449.00,0.3505
6448.00,0.3505
6447.00,0.3506
6446.00,0.3506
6445.00,0.3507
6444.00,0.3507
6443.00,0.3507
6442.00,0.3507
6441.00,0.3507
6440.00,0.3507
6439.00,0.3507
6438.00,0.3507
6437.00,0.3507
6436.00,0.3507
6435.00,0.3507
6434.00,0.3508
6433.00,0.3508
6432.00,0.3508
6431.00,0.3508
6430.00,0.3509
6429.00,0.3509
6428.00,0.3509
6427.00,0.3509
6426.00,0.3509
6425.00,0.3509
6424.00,0.3509
6423.00,0.3510
6422.00,0.3510
6421.00,0.3509
6420.00,0.3509
6419.00,0.3510
6418.00,0.3510
6417.00,0.3510
6416.00,0.3510
6415.00,0.3510
6414.00,0.3510
6413.00,0.3510
6412.00,0.3511
6411.00,0.3511
6410.00,0.3511
6409.00,0.3511
6408.00,0.3511
6407.00,0.3511
6406.00,0.3512
6405.00,0.3511
6404.00,0.3511
6403.00,0.3511
6402.00,0.3511
6401.00,0.3511
6400.00,0.3511
6399.00,0.3511
6398.00,0.3511
6397.00,0.3511
6396.00,0.3511
6395.00,0.3511
6394.00,0.3511
6393.00,0.3512
6392.00,0.3512
6391.00,0.3512
6390.00,0.3513
6389.00,0.3513
6388.00,0.3513
6387.00,0.3513
6386.00,0.3512
6385.00,0.3512
6384.00,0.3512
6383.00,0.3512
6382.00,0.3512
6381.00,0.3512
6380.00,0.3512
6379.00,0.3512
6378.00,0.3512
6377.00,0.3512
6376.00,0.3511
6375.00,0.3511
6374.00,0.3511
6373.00,0.3511
6372.00,0.3511
6371.00,0.3511
6370.00,0.3511
6369.00,0.3512
6368.00,0.3512
6367.00,0.3512
6366.00,0.3512
6365.00,0.3512
6364.00,0.3512
6363.00,0.3512
6362.00,0.3512
6361.00,0.3512
6360.00,0.3512
6359.00,0.3512
6358.00,0.3512
6357.00,0.3512
6356.00,0.3512
6355.00,0.3512
6354.00,0.3511
6353.00,0.3511
6352.00,0.3511
6351.00,0.3510
6350.00,0.3510
6349.00,0.3510
6348.00,0.3510
6347.00,0.3510
6346.00,0.3509
6345.00,0.3509
6344.00,0.3510
6343.00,0.3509
6342.00,0.3509
6341.00,0.3509
6340.00,0.3509
6339.00,0.3509
6338.00,0.3509
6337.00,0.3508
6336.00,0.3507
6335.00,0.3507
6334.00,0.3507
6333.00,0.3506
6332.00,0.3506
6331.00,0.3505
6330.00,0.3505
6329.00,0.3504
6328.00,0.3503
6327.00,0.3503
6326.00,0.3502
6325.00,0.3502
6324.00,0.3501
6323.00,0.3501
6322.00,0.3501
6321.00,0.3500
6320.00,0.3500
6319.00,0.3500
6318.00,0.3500
6317.00,0.3500
6316.00,0.3500
6315.00,0.3501
6314.00,0.3501
6313.00,0.3500
6312.00,0.3500
6311.00,0.3499
6310.00,0.3498
6309.00,0.3497
6308.00,0.3496
6307.00,0.3495
6306.00,0.3495
6305.00,0.3495
6304.00,0.3494
6303.00,0.3493
6302.00,0.3493
6301.00,0.3492
6300.00,0.3491
6299.00,0.3491
6298.00,0.3490
6297.00,0.3490
6296.00,0.3489
6295.00,0.3489
6294.00,0.3488
6293.00,0.3487
6292.00,0.3487
6291.00,0.3486
6290.00,0.3486
6289.00,0.3485
6288.00,0.3485
6287.00,0.3484
6286.00,0.3483
6285.00,0.3482
6284.00,0.3481
6283.00,0.3480
6282.00,0.3479
6281.00,0.3478
6280.00,0.3478
6279.00,0.3477
6278.00,0.3476
6277.00,0.3476
6276.00,0.3475
6275.00,0.3473
6274.00,0.3473
6273.00,0.3472
6272.00,0.3471
6271.00,0.3470
6270.00,0.3470
6269.00,0.3469
6268.00,0.3468
6267.00,0.3467
6266.00,0.3466
6265.00,0.3465
6264.00,0.3464
6263.00,0.3463
6262.00,0.3463
6261.00,0.3462
6260.00,0.3462
6259.00,0.3461
6258.00,0.3460
6257.00,0.3459
6256.00,0.3458
6255.00,0.3457
6254.00,0.3456
6253.00,0.3455
6252.00,0.3454
6251.00,0.3453
6250.00,0.3452
6249.00,0.3451
6248.00,0.3450
6247.00,0.3450
6246.00,0.3449
6245.00,0.3448
6244.00,0.3447
6243.00,0.3446
6242.00,0.3444
6241.00,0.3443
6240.00,0.3442
6239.00,0.3441
6238.00,0.3440
6237.00,0.3439
6236.00,0.3438
6235.00,0.3437
6234.00,0.3436
6233.00,0.3435
6232.00,0.3434
6231.00,0.3433
6230.00,0.3432
6229.00,0.3431
6228.00,0.3430
6227.00,0.3429
6226.00,0.3428
6225.00,0.3427
6224.00,0.3426
6223.00,0.3425
6222.00,0.3423
6221.00,0.3423
6220.00,0.3422
6219.00,0.3420
6218.00,0.3419
6217.00,0.3418
6216.00,0.3416
6215.00,0.3415
6214.00,0.3414
6213.00,0.3413
6212.00,0.3412
6211.00,0.3411
6210.00,0.3410
6209.00,0.3409
6208.00,0.3408
6207.00,0.3407
6206.00,0.3406
6205.00,0.3405
6204.00,0.3404
6203.00,0.3402
6202.00,0.3401
6201.00,0.3400
6200.00,0.3399
6199.00,0.3398
6198.00,0.3397
6197.00,0.3396
6196.00,0.3395
6195.00,0.3394
6194.00,0.3393
6193.00,0.3391
6192.00,0.3390
6191.00,0.3389
6190.00,0.3388
6189.00,0.3387
6188.00,0.3385
6187.00,0.3384
6186.00,0.3383
6185.00,0.3383
6184.00,0.3382
6183.00,0.3380
6182.00,0.3379
6181.00,0.3378
6180.00,0.3377
6179.00,0.3376
6178.00,0.3375
6177.00,0.3374
6176.00,0.3373
6175.00,0.3372
6174.00,0.3371
6173.00,0.3370
6172.00,0.3369
6171.00,0.3368
6170.00,0.3367
6169.00,0.3366
6168.00,0.3364
6167.00,0.3363
6166.00,0.3362
6165.00,0.3361
6164.00,0.3360
6163.00,0.3359
6162.00,0.3358
6161.00,0.3357
6160.00,0.3355
6159.00,0.3354
6158.00,0.3353
6157.00,0.3352
6156.00,0.3351
6155.00,0.3350
6154.00,0.3349
6153.00,0.3348
6152.00,0.3347
6151.00,0.3347
6150.00,0.3346
6149.00,0.3345
6148.00,0.3344
6147.00,0.3343
6146.00,0.3342
6145.00,0.3340
6144.00,0.3339
6143.00,0.3338
6142.00,0.3336
6141.00,0.3335
6140.00,0.3333
6139.00,0.3332
6138.00,0.3331
6137.00,0.3330
6136.00,0.3329
6135.00,0.3328
6134.00,0.3327
6133.00,0.3326
6132.00,0.3325
6131.00,0.3324
6130.00,0.3323
6129.00,0.3322
6128.00,0.3321
6127.00,0.3320
6126.00,0.3319
6125.00,0.3318
6124.00,0.3317
6123.00,0.3316
6122.00,0.3316
6121.00,0.3315
6120.00,0.3314
6119.00,0.3312
6118.00,0.3311
6117.00,0.3310
6116.00,0.3309
6115.00,0.3308
6114.00,0.3307
6113.00,0.3306
6112.00,0.3305
6111.00,0.3304
6110.00,0.3303
6109.00,0.3302
6108.00,0.3301
6107.00,0.3300
6106.00,0.3299
6105.00,0.3297
6104.00,0.3296
6103.00,0.3295
6102.00,0.3294
6101.00,0.3293
6100.00,0.3292
6099.00,0.3291
6098.00,0.3290
6097.00,0.3290
6096.00,0.3289
6095.00,0.3288
6094.00,0.3287
6093.00,0.3286
6092.00,0.3285
6091.00,0.3284
6090.00,0.3282
6089.00,0.3281
6088.00,0.3280
6087.00,0.3280
6086.00,0.3279
6085.00,0.3278
6084.00,0.3277
6083.00,0.3276
6082.00,0.3275
6081.00,0.3274
6080.00,0.3273
6079.00,0.3272
6078.00,0.3271
6077.00,0.3270
6076.00,0.3269
6075.00,0.3268
6074.00,0.3267
6073.00,0.3267
6072.00,0.3266
6071.00,0.3265
6070.00,0.3264
6069.00,0.3263
6068.00,0.3262
6067.00,0.3262
6066.00,0.3261
6065.00,0.3260
6064.00,0.3260
6063.00,0.3259
6062.00,0.3259
6061.00,0.3258
6060.00,0.3257
6059.00,0.3256
6058.00,0.3255
6057.00,0.3254
6056.00,0.3253
6055.00,0.3252
6054.00,0.3251
6053.00,0.3251
6052.00,0.3250
6051.00,0.3249
6050.00,0.3249
6049.00,0.3248
6048.00,0.3247
6047.00,0.3247
6046.00,0.3246
6045.00,0.3245
6044.00,0.3244
6043.00,0.3243
6042.00,0.3243
6041.00,0.3242
6040.00,0.3241
6039.00,0.3241
6038.00,0.3240
6037.00,0.3240
6036.00,0.3239
6035.00,0.3239
6034.00,0.3238
6033.00,0.3238
6032.00,0.3238
6031.00,0.3237
6030.00,0.3237
6029.00,0.3237
6028.00,0.3236
6027.00,0.3236
6026.00,0.3235
6025.00,0.3234
6024.00,0.3234
6023.00,0.3233
6022.00,0.3232
6021.00,0.3232
6020.00,0.3231
6019.00,0.3230
6018.00,0.3230
6017.00,0.3229
6016.00,0.3228
6015.00,0.3228
6014.00,0.3228
6013.00,0.3228
6012.00,0.3228
6011.00,0.3227
6010.00,0.3227
6009.00,0.3227
6008.00,0.3226
6007.00,0.3226
6006.00,0.3226
6005.00,0.3225
6004.00,0.3225
6003.00,0.3224
6002.00,0.3224
6001.00,0.3224
6000.00,0.3224
5999.00,0.3224
5998.00,0.3224
5997.00,0.3225
5996.00,0.3225
5995.00,0.3225
5994.00,0.3225
5993.00,0.3225
5992.00,0.3224
5991.00,0.3224
5990.00,0.3224
5989.00,0.3224
5988.00,0.3225
5987.00,0.3225
5986.00,0.3225
5985.00,0.3226
5984.00,0.3226
5983.00,0.3226
5982.00,0.3226
5981.00,0.3227
5980.00,0.3227
5979.00,0.3227
5978.00,0.3227
5977.00,0.3227
5976.00,0.3227
5975.00,0.3227
5974.00,0.3228
5973.00,0.3228
5972.00,0.3229
5971.00,0.3230
5970.00,0.3231
5969.00,0.3232
5968.00,0.3233
5967.00,0.3234
5966.00,0.3235
5965.00,0.3236
5964.00,0.3237
5963.00,0.3238
5962.00,0.3239
5961.00,0.3240
5960.00,0.3241
5959.00,0.3242
5958.00,0.3243
5957.00,0.3244
5956.00,0.3245
5955.00,0.3246
5954.00,0.3247
5953.00,0.3249
5952.00,0.3250
5951.00,0.3252
5950.00,0.3253
5949.00,0.3254
5948.00,0.3255
5947.00,0.3257
5946.00,0.3258
5945.00,0.3260
5944.00,0.3261
5943.00,0.3263
5942.00,0.3265
5941.00,0.3267
5940.00,0.3268
5939.00,0.3270
5938.00,0.3271
5937.00,0.3272
5936.00,0.3273
5935.00,0.3275
5934.00,0.3276
5933.00,0.3278
5932.00,0.3279
5931.00,0.3281
5930.00,0.3283
5929.00,0.3284
5928.00,0.3286
5927.00,0.3287
5926.00,0.3289
5925.00,0.3290
5924.00,0.3291
5923.00,0.3292
5922.00,0.3293
5921.00,0.3294
5920.00,0.3295
5919.00,0.3297
5918.00,0.3298
5917.00,0.3299
5916.00,0.3300
5915.00,0.3301
5914.00,0.3302
5913.00,0.3303
5912.00,0.3304
5911.00,0.3305
5910.00,0.3305
5909.00,0.3306
5908.00,0.3306
5907.00,0.3307
5906.00,0.3307
5905.00,0.3308
5904.00,0.3308
5903.00,0.3309
5902.00,0.3309
5901.00,0.3309
5900.00,0.3310
5899.00,0.3310
5898.00,0.3311
5897.00,0.3311
5896.00,0.3311
5895.00,0.3312
5894.00,0.3312
5893.00,0.3312
5892.00,0.3313
5891.00,0.3313
5890.00,0.3314
5889.00,0.3315
5888.00,0.3315
5887.00,0.3316
5886.00,0.3316
5885.00,0.3316
5884.00,0.3316
5883.00,0.3316
5882.00,0.3316
5881.00,0.3316
5880.00,0.3317
5879.00,0.3318
5878.00,0.3318
5877.00,0.3319
5876.00,0.3320
5875.00,0.3320
5874.00,0.3321
5873.00,0.3322
5872.00,0.3322
5871.00,0.3323
5870.00,0.3323
5869.00,0.3324
5868.00,0.3324
5867.00,0.3325
5866.00,0.3325
5865.00,0.3326
5864.00,0.3326
5863.00,0.3327
5862.00,0.3327
5861.00,0.3328
5860.00,0.3328
5859.00,0.3329
5858.00,0.3330
5857.00,0.3331
5856.00,0.3331
5855.00,0.3332
5854.00,0.3333
5853.00,0.3333
5852.00,0.3334
5851.00,0.3335
5850.00,0.3336
5849.00,0.3337
5848.00,0.3337
5847.00,0.3338
5846.00,0.3339
5845.00,0.3340
5844.00,0.3340
5843.00,0.3341
5842.00,0.3342
5841.00,0.3343
5840.00,0.3344
5839.00,0.3345
5838.00,0.3346
5837.00,0.3347
5836.00,0.3348
5835.00,0.3349
5834.00,0.3350
5833.00,0.3352
5832.00,0.3353
5831.00,0.3354
5830.00,0.3356
5829.00,0.3357
5828.00,0.3359
5827.00,0.3361
5826.00,0.3363
5825.00,0.3364
5824.00,0.3365
5823.00,0.3366
5822.00,0.3367
5821.00,0.3367
5820.00,0.3368
5819.00,0.3369
5818.00,0.3370
5817.00,0.3372
5816.00,0.3373
5815.00,0.3374
5814.00,0.3375
5813.00,0.3377
5812.00,0.3378
5811.00,0.3380
5810.00,0.3381
5809.00,0.3383
5808.00,0.3384
5807.00,0.3385
5806.00,0.3385
5805.00,0.3386
5804.00,0.3388
5803.00,0.3389
5802.00,0.3390
5801.00,0.3391
5800.00,0.3393
5799.00,0.3394
5798.00,0.3395
5797.00,0.3396
5796.00,0.3397
5795.00,0.3398
5794.00,0.3399
5793.00,0.3401
5792.00,0.3402
5791.00,0.3402
5790.00,0.3403
5789.00,0.3404
5788.00,0.3405
5787.00,0.3406
5786.00,0.3407
5785.00,0.3407
5784.00,0.3407
5783.00,0.3408
5782.00,0.3408
5781.00,0.3409
5780.00,0.3410
5779.00,0.3410
5778.00,0.3411
5777.00,0.3411
5776.00,0.3412
5775.00,0.3412
5774.00,0.3413
5773.00,0.3414
5772.00,0.3414
5771.00,0.3415
5770.00,0.3415
5769.00,0.3415
5768.00,0.3415
5767.00,0.3415
5766.00,0.3415
5765.00,0.3416
5764.00,0.3416
5763.00,0.3417
5762.00,0.3418
5761.00,0.3419
5760.00,0.3419
5759.00,0.3419
5758.00,0.3420
5757.00,0.3420
5756.00,0.3419
5755.00,0.3419
5754.00,0.3419
5753.00,0.3419
5752.00,0.3419
5751.00,0.3419
5750.00,0.3420
5749.00,0.3421
5748.00,0.3422
5747.00,0.3422
5746.00,0.3423
5745.00,0.3423
5744.00,0.3423
5743.00,0.3424
5742.00,0.3424
5741.00,0.3424
5740.00,0.3425
5739.00,0.3425
5738.00,0.3424
5737.00,0.3424
5736.00,0.3424
5735.00,0.3424
5734.00,0.3425
5733.00,0.3425
5732.00,0.3425
5731.00,0.3425
5730.00,0.3425
5729.00,0.3425
5728.00,0.3426
5727.00,0.3426
5726.00,0.3427
5725.00,0.3427
5724.00,0.3427
5723.00,0.3427
5722.00,0.3426
5721.00,0.3427
5720.00,0.3427
5719.00,0.3427
5718.00,0.3428
5717.00,0.3428
5716.00,0.3428
5715.00,0.3428
5714.00,0.3429
5713.00,0.3429
5712.00,0.3429
5711.00,0.3430
5710.00,0.3430
5709.00,0.3429
5708.00,0.3429
5707.00,0.3429
5706.00,0.3430
5705.00,0.3430
5704.00,0.3431
5703.00,0.3432
5702.00,0.3432
5701.00,0.3432
5700.00,0.3432
5699.00,0.3433
5698.00,0.3433
5697.00,0.3433
5696.00,0.3433
5695.00,0.3434
5694.00,0.3434
5693.00,0.3434
5692.00,0.3435
5691.00,0.3435
5690.00,0.3435
5689.00,0.3436
5688.00,0.3436
5687.00,0.3437
5686.00,0.3437
5685.00,0.3437
5684.00,0.3438
5683.00,0.3438
5682.00,0.3439
5681.00,0.3439
5680.00,0.3439
5679.00,0.3439
5678.00,0.3439
5677.00,0.3439
5676.00,0.3438
5675.00,0.3438
5674.00,0.3439
5673.00,0.3439
5672.00,0.3439
5671.00,0.3440
5670.00,0.3440
5669.00,0.3441
5668.00,0.3441
5667.00,0.3441
5666.00,0.3441
5665.00,0.3440
5664.00,0.3439
5663.00,0.3439
5662.00,0.3438
5661.00,0.3438
5660.00,0.3438
5659.00,0.3438
5658.00,0.3438
5657.00,0.3439
5656.00,0.3439
5655.00,0.3439
5654.00,0.3439
5653.00,0.3439
5652.00,0.3438
5651.00,0.3437
5650.00,0.3437
5649.00,0.3437
5648.00,0.3437
5647.00,0.3436
5646.00,0.3436
5645.00,0.3436
5644.00,0.3436
5643.00,0.3436
5642.00,0.3436
5641.00,0.3436
5640.00,0.3436
5639.00,0.3436
5638.00,0.3436
5637.00,0.3436
5636.00,0.3435
5635.00,0.3435
5634.00,0.3435
5633.00,0.3435
5632.00,0.3435
5631.00,0.3435
5630.00,0.3435
5629.00,0.3434
5628.00,0.3435
5627.00,0.3434
5626.00,0.3434
5625.00,0.3434
5624.00,0.3434
5623.00,0.3433
5622.00,0.3433
5621.00,0.3432
5620.00,0.3432
5619.00,0.3432
5618.00,0.3432
5617.00,0.3432
5616.00,0.3432
5615.00,0.3431
5614.00,0.3431
5613.00,0.3430
5612.00,0.3429
5611.00,0.3429
5610.00,0.3428
5609.00,0.3428
5608.00,0.3428
5607.00,0.3428
5606.00,0.3428
5605.00,0.3428
5604.00,0.3427
5603.00,0.3427
5602.00,0.3426
5601.00,0.3425
5600.00,0.3425
5599.00,0.3424
5598.00,0.3424
5597.00,0.3423
5596.00,0.3423
5595.00,0.3422
5594.00,0.3422
5593.00,0.3421
5592.00,0.3420
5591.00,0.3420
5590.00,0.3420
5589.00,0.3419
5588.00,0.3419
5587.00,0.3418
5586.00,0.3418
5585.00,0.3417
5584.00,0.3417
5583.00,0.3416
5582.00,0.3415
5581.00,0.3415
5580.00,0.3414
5579.00,0.3414
5578.00,0.3413
5577.00,0.3413
5576.00,0.3412
5575.00,0.3411
5574.00,0.3410
5573.00,0.3409
5572.00,0.3409
5571.00,0.3408
5570.00,0.3408
5569.00,0.3408
5568.00,0.3407
5567.00,0.3406
5566.00,0.3405
5565.00,0.3404
5564.00,0.3403
5563.00,0.3402
5562.00,0.3401
5561.00,0.3400
5560.00,0.3400
5559.00,0.3400
5558.00,0.3400
5557.00,0.3400
5556.00,0.3401
5555.00,0.3401
5554.00,0.3400
5553.00,0.3400
5552.00,0.3399
5551.00,0.3398
5550.00,0.3397
5549.00,0.3396
5548.00,0.3394
5547.00,0.3393
5546.00,0.3392
5545.00,0.3390
5544.00,0.3389
5543.00,0.3389
5542.00,0.3389
5541.00,0.3390
5540.00,0.3391
5539.00,0.3392
5538.00,0.3392
5537.00,0.3391
5536.00,0.3389
5535.00,0.3387
5534.00,0.3385
5533.00,0.3383
5532.00,0.3382
5531.00,0.3382
5530.00,0.3381
5529.00,0.3381
5528.00,0.3380
5527.00,0.3380
5526.00,0.3381
5525.00,0.3382
5524.00,0.3383
5523.00,0.3383
5522.00,0.3382
5521.00,0.3382
5520.00,0.3381
5519.00,0.3380
5518.00,0.3379
5517.00,0.3378
5516.00,0.3376
5515.00,0.3374
5514.00,0.3373
5513.00,0.3373
5512.00,0.3375
5511.00,0.3378
5510.00,0.3380
5509.00,0.3380
5508.00,0.3379
5507.00,0.3377
5506.00,0.3374
5505.00,0.3371
5504.00,0.3369
5503.00,0.3368
5502.00,0.3368
5501.00,0.3368
5500.00,0.3367
5499.00,0.3367
5498.00,0.3370
5497.00,0.3375
5496.00,0.3380
5495.00,0.3383
5494.00,0.3385
5493.00,0.3385
5492.00,0.3383
5491.00,0.3378
5490.00,0.3373
5489.00,0.3368
5488.00,0.3364
5487.00,0.3361
5486.00,0.3357
5485.00,0.3353
5484.00,0.3351
5483.00,0.3351
5482.00,0.3352
5481.00,0.3355
5480.00,0.3361
5479.00,0.3368
5478.00,0.3374
5477.00,0.3375
5476.00,0.3372
5475.00,0.3366
5474.00,0.3360
5473.00,0.3355
5472.00,0.3352
5471.00,0.3353
5470.00,0.3356
5469.00,0.3357
5468.00,0.3357
5467.00,0.3356
5466.00,0.3356
5465.00,0.3357
5464.00,0.3358
5463.00,0.3358
5462.00,0.3356
5461.00,0.3353
5460.00,0.3349
5459.00,0.3345
5458.00,0.3341
5457.00,0.3337
5456.00,0.3334
5455.00,0.3333
5454.00,0.3334
5453.00,0.3336
5452.00,0.3339
5451.00,0.3343
5450.00,0.3348
5449.00,0.3351
5448.00,0.3352
5447.00,0.3350
5446.00,0.3350
5445.00,0.3350
5444.00,0.3349
5443.00,0.3344
5442.00,0.3337
5441.00,0.3332
5440.00,0.3329
5439.00,0.3328
5438.00,0.3329
5437.00,0.3329
5436.00,0.3329
5435.00,0.3330
5434.00,0.3330
5433.00,0.3331
5432.00,0.3332
5431.00,0.3333
5430.00,0.3332
5429.00,0.3328
5428.00,0.3321
5427.00,0.3311
5426.00,0.3304
5425.00,0.3299
5424.00,0.3297
5423.00,0.3297
5422.00,0.3296
5421.00,0.3295
5420.00,0.3296
5419.00,0.3301
5418.00,0.3308
5417.00,0.3316
5416.00,0.3323
5415.00,0.3328
5414.00,0.3331
5413.00,0.3329
5412.00,0.3322
5411.00,0.3313
5410.00,0.3304
5409.00,0.3298
5408.00,0.3292
5407.00,0.3288
5406.00,0.3286
5405.00,0.3285
5404.00,0.3284
5403.00,0.3283
5402.00,0.3282
5401.00,0.3283
5400.00,0.3286
5399.00,0.3291
5398.00,0.3297
5397.00,0.3302
5396.00,0.3303
5395.00,0.3299
5394.00,0.3292
5393.00,0.3285
5392.00,0.3280
5391.00,0.3279
5390.00,0.3282
5389.00,0.3288
5388.00,0.3293
5387.00,0.3294
5386.00,0.3292
5385.00,0.3287
5384.00,0.3282
5383.00,0.3278
5382.00,0.3278
5381.00,0.3284
5380.00,0.3292
5379.00,0.3298
5378.00,0.3302
5377.00,0.3301
5376.00,0.3297
5375.00,0.3290
5374.00,0.3282
5373.00,0.3278
5372.00,0.3276
5371.00,0.3275
5370.00,0.3276
5369.00,0.3279
5368.00,0.3283
5367.00,0.3287
5366.00,0.3289
5365.00,0.3290
5364.00,0.3290
5363.00,0.3287
5362.00,0.3285
5361.00,0.3283
5360.00,0.3284
5359.00,0.3289
5358.00,0.3299
5357.00,0.3311
5356.00,0.3320
5355.00,0.3325
5354.00,0.3324
5353.00,0.3320
5352.00,0.3315
5351.00,0.3311
5350.00,0.3313
5349.00,0.3321
5348.00,0.3332
5347.00,0.3341
5346.00,0.3342
5345.00,0.3338
5344.00,0.3335
5343.00,0.3335
5342.00,0.3338
5341.00,0.3343
5340.00,0.3349
5339.00,0.3352
5338.00,0.3350
5337.00,0.3344
5336.00,0.3339
5335.00,0.3336
5334.00,0.3336
5333.00,0.3340
5332.00,0.3346
5331.00,0.3352
5330.00,0.3355
5329.00,0.3357
5328.00,0.3357
5327.00,0.3356
5326.00,0.3355
5325.00,0.3353
5324.00,0.3353
5323.00,0.3355
5322.00,0.3360
5321.00,0.3366
5320.00,0.3372
5319.00,0.3377
5318.00,0.3381
5317.00,0.3386
5316.00,0.3390
5315.00,0.3393
5314.00,0.3397
5313.00,0.3402
5312.00,0.3410
5311.00,0.3420
5310.00,0.3429
5309.00,0.3436
5308.00,0.3441
5307.00,0.3444
5306.00,0.3447
5305.00,0.3450
5304.00,0.3455
5303.00,0.3463
5302.00,0.3471
5301.00,0.3478
5300.00,0.3483
5299.00,0.3489
5298.00,0.3495
5297.00,0.3501
5296.00,0.3510
5295.00,0.3522
5294.00,0.3536
5293.00,0.3549
5292.00,0.3560
5291.00,0.3569
5290.00,0.3577
5289.00,0.3584
5288.00,0.3592
5287.00,0.3600
5286.00,0.3610
5285.00,0.3622
5284.00,0.3633
5283.00,0.3643
5282.00,0.3653
5281.00,0.3663
5280.00,0.3674
5279.00,0.3685
5278.00,0.3695
5277.00,0.3706
5276.00,0.3718
5275.00,0.3732
5274.00,0.3746
5273.00,0.3762
5272.00,0.3778
5271.00,0.3794
5270.00,0.3811
5269.00,0.3829
5268.00,0.3848
5267.00,0.3867
5266.00,0.3884
5265.00,0.3900
5264.00,0.3913
5263.00,0.3923
5262.00,0.3930
5261.00,0.3939
5260.00,0.3951
5259.00,0.3968
5258.00,0.3987
5257.00,0.4005
5256.00,0.4022
5255.00,0.4036
5254.00,0.4049
5253.00,0.4063
5252.00,0.4080
5251.00,0.4100
5250.00,0.4121
5249.00,0.4142
5248.00,0.4159
5247.00,0.4172
5246.00,0.4181
5245.00,0.4188
5244.00,0.4196
5243.00,0.4206
5242.00,0.4216
5241.00,0.4227
5240.00,0.4240
5239.00,0.4254
5238.00,0.4270
5237.00,0.4285
5236.00,0.4300
5235.00,0.4316
5234.00,0.4333
5233.00,0.4347
5232.00,0.4359
5231.00,0.4371
5230.00,0.4385
5229.00,0.4400
5228.00,0.4415
5227.00,0.4429
5226.00,0.4440
5225.00,0.4448
5224.00,0.4453
5223.00,0.4459
5222.00,0.4468
5221.00,0.4479
5220.00,0.4491
5219.00,0.4502
5218.00,0.4510
5217.00,0.4517
5216.00,0.4524
5215.00,0.4532
5214.00,0.4543
5213.00,0.4557
5212.00,0.4574
5211.00,0.4592
5210.00,0.4610
5209.00,0.4625
5208.00,0.4633
5207.00,0.4635
5206.00,0.4633
5205.00,0.4630
5204.00,0.4629
5203.00,0.4632
5202.00,0.4640
5201.00,0.4650
5200.00,0.4662
5199.00,0.4670
5198.00,0.4676
5197.00,0.4680
5196.00,0.4682
5195.00,0.4685
5194.00,0.4689
5193.00,0.4695
5192.00,0.4702
5191.00,0.4709
5190.00,0.4715
5189.00,0.4721
5188.00,0.4727
5187.00,0.4730
5186.00,0.4732
5185.00,0.4734
5184.00,0.4735
5183.00,0.4736
5182.00,0.4738
5181.00,0.4740
5180.00,0.4744
5179.00,0.4746
5178.00,0.4748
5177.00,0.4748
5176.00,0.4749
5175.00,0.4750
5174.00,0.4752
5173.00,0.4754
5172.00,0.4755
5171.00,0.4755
5170.00,0.4754
5169.00,0.4754
5168.00,0.4755
5167.00,0.4756
5166.00,0.4758
5165.00,0.4759
5164.00,0.4758
5163.00,0.4757
5162.00,0.4755
5161.00,0.4753
5160.00,0.4753
5159.00,0.4754
5158.00,0.4754
5157.00,0.4751
5156.00,0.4748
5155.00,0.4744
5154.00,0.4741
5153.00,0.4737
5152.00,0.4734
5151.00,0.4731
5150.00,0.4728
5149.00,0.4725
5148.00,0.4722
5147.00,0.4720
5146.00,0.4718
5145.00,0.4716
5144.00,0.4714
5143.00,0.4711
5142.00,0.4707
5141.00,0.4702
5140.00,0.4698
5139.00,0.4694
5138.00,0.4690
5137.00,0.4688
5136.00,0.4685
5135.00,0.4682
5134.00,0.4678
5133.00,0.4673
5132.00,0.4669
5131.00,0.4664
5130.00,0.4660
5129.00,0.4655
5128.00,0.4651
5127.00,0.4647
5126.00,0.4643
5125.00,0.4640
5124.00,0.4636
5123.00,0.4633
5122.00,0.4630
5121.00,0.4627
5120.00,0.4622
5119.00,0.4618
5118.00,0.4613
5117.00,0.4608
5116.00,0.4604
5115.00,0.4599
5114.00,0.4594
5113.00,0.4589
5112.00,0.4584
5111.00,0.4580
5110.00,0.4575
5109.00,0.4571
5108.00,0.4568
5107.00,0.4564
5106.00,0.4560
5105.00,0.4555
5104.00,0.4551
5103.00,0.4546
5102.00,0.4541
5101.00,0.4537
5100.00,0.4533
5099.00,0.4529
5098.00,0.4526
5097.00,0.4522
5096.00,0.4518
5095.00,0.4514
5094.00,0.4510
5093.00,0.4506
5092.00,0.4502
5091.00,0.4498
5090.00,0.4494
5089.00,0.4490
5088.00,0.4487
5087.00,0.4483
5086.00,0.4479
5085.00,0.4475
5084.00,0.4472
5083.00,0.4468
5082.00,0.4464
5081.00,0.4461
5080.00,0.4457
5079.00,0.4453
5078.00,0.4449
5077.00,0.4446
5076.00,0.4442
5075.00,0.4439
5074.00,0.4436
5073.00,0.4432
5072.00,0.4428
5071.00,0.4425
5070.00,0.4421
5069.00,0.4417
5068.00,0.4413
5067.00,0.4410
5066.00,0.4407
5065.00,0.4403
5064.00,0.4400
5063.00,0.4396
5062.00,0.4392
5061.00,0.4389
5060.00,0.4385
5059.00,0.4381
5058.00,0.4376
5057.00,0.4372
5056.00,0.4368
5055.00,0.4365
5054.00,0.4361
5053.00,0.4358
5052.00,0.4354
5051.00,0.4350
5050.00,0.4346
5049.00,0.4342
5048.00,0.4338
5047.00,0.4334
5046.00,0.4330
5045.00,0.4326
5044.00,0.4321
5043.00,0.4317
5042.00,0.4313
5041.00,0.4309
5040.00,0.4305
5039.00,0.4301
5038.00,0.4296
5037.00,0.4292
5036.00,0.4289
5035.00,0.4285
5034.00,0.4281
5033.00,0.4277
5032.00,0.4272
5031.00,0.4268
5030.00,0.4264
5029.00,0.4260
5028.00,0.4256
5027.00,0.4252
5026.00,0.4248
5025.00,0.4244
5024.00,0.4240
5023.00,0.4236
5022.00,0.4232
5021.00,0.4228
5020.00,0.4225
5019.00,0.4221
5018.00,0.4217
5017.00,0.4213
5016.00,0.4210
5015.00,0.4207
5014.00,0.4203
5013.00,0.4200
5012.00,0.4197
5011.00,0.4194
5010.00,0.4191
5009.00,0.4188
5008.00,0.4184
5007.00,0.4181
5006.00,0.4178
5005.00,0.4176
5004.00,0.4173
5003.00,0.4171
5002.00,0.4168
5001.00,0.4166
5000.00,0.4164
4999.00,0.4161
4998.00,0.4159
4997.00,0.4157
4996.00,0.4155
4995.00,0.4153
4994.00,0.4152
4993.00,0.4150
4992.00,0.4148
4991.00,0.4147
4990.00,0.4145
4989.00,0.4144
4988.00,0.4144
4987.00,0.4143
4986.00,0.4143
4985.00,0.4142
4984.00,0.4142
4983.00,0.4141
4982.00,0.4141
4981.00,0.4140
4980.00,0.4141
4979.00,0.4141
4978.00,0.4142
4977.00,0.4142
4976.00,0.4142
4975.00,0.4143
4974.00,0.4143
4973.00,0.4144
4972.00,0.4145
4971.00,0.4146
4970.00,0.4147
4969.00,0.4149
4968.00,0.4151
4967.00,0.4152
4966.00,0.4154
4965.00,0.4157
4964.00,0.4159
4963.00,0.4161
4962.00,0.4164
4961.00,0.4166
4960.00,0.4169
4959.00,0.4171
4958.00,0.4174
4957.00,0.4178
4956.00,0.4181
4955.00,0.4184
4954.00,0.4187
4953.00,0.4191
4952.00,0.4194
4951.00,0.4198
4950.00,0.4202
4949.00,0.4206
4948.00,0.4211
4947.00,0.4215
4946.00,0.4220
4945.00,0.4224
4944.00,0.4228
4943.00,0.4232
4942.00,0.4236
4941.00,0.4241
4940.00,0.4246
4939.00,0.4252
4938.00,0.4257
4937.00,0.4263
4936.00,0.4268
4935.00,0.4274
4934.00,0.4279
4933.00,0.4285
4932.00,0.4291
4931.00,0.4297
4930.00,0.4303
4929.00,0.4309
4928.00,0.4315
4927.00,0.4321
4926.00,0.4327
4925.00,0.4333
4924.00,0.4340
4923.00,0.4346
4922.00,0.4353
4921.00,0.4360
4920.00,0.4366
4919.00,0.4373
4918.00,0.4380
4917.00,0.4387
4916.00,0.4395
4915.00,0.4402
4914.00,0.4410
4913.00,0.4417
4912.00,0.4424
4911.00,0.4431
4910.00,0.4439
4909.00,0.4446
4908.00,0.4454
4907.00,0.4461
4906.00,0.4469
4905.00,0.4477
4904.00,0.4485
4903.00,0.4492
4902.00,0.4500
4901.00,0.4507
4900.00,0.4515
4899.00,0.4523
4898.00,0.4531
4897.00,0.4539
4896.00,0.4548
4895.00,0.4556
4894.00,0.4564
4893.00,0.4571
4892.00,0.4579
4891.00,0.4586
4890.00,0.4594
4889.00,0.4602
4888.00,0.4610
4887.00,0.4619
4886.00,0.4627
4885.00,0.4636
4884.00,0.4644
4883.00,0.4652
4882.00,0.4660
4881.00,0.4668
4880.00,0.4676
4879.00,0.4684
4878.00,0.4693
4877.00,0.4701
4876.00,0.4710
4875.00,0.4718
4874.00,0.4726
4873.00,0.4733
4872.00,0.4740
4871.00,0.4747
4870.00,0.4754
4869.00,0.4762
4868.00,0.4769
4867.00,0.4777
4866.00,0.4785
4865.00,0.4793
4864.00,0.4801
4863.00,0.4808
4862.00,0.4816
4861.00,0.4824
4860.00,0.4831
4859.00,0.4838
4858.00,0.4845
4857.00,0.4852
4856.00,0.4858
4855.00,0.4865
4854.00,0.4872
4853.00,0.4879
4852.00,0.4886
4851.00,0.4893
4850.00,0.4900
4849.00,0.4907
4848.00,0.4914
4847.00,0.4921
4846.00,0.4928
4845.00,0.4935
4844.00,0.4941
4843.00,0.4948
4842.00,0.4954
4841.00,0.4961
4840.00,0.4967
4839.00,0.4973
4838.00,0.4979
4837.00,0.4985
4836.00,0.4990
4835.00,0.4997
4834.00,0.5003
4833.00,0.5009
4832.00,0.5015
4831.00,0.5021
4830.00,0.5027
4829.00,0.5033
4828.00,0.5038
4827.00,0.5044
4826.00,0.5049
4825.00,0.5055
4824.00,0.5060
4823.00,0.5066
4822.00,0.5071
4821.00,0.5076
4820.00,0.5081
4819.00,0.5086
4818.00,0.5091
4817.00,0.5096
4816.00,0.5101
4815.00,0.5105
4814.00,0.5109
4813.00,0.5113
4812.00,0.5118
4811.00,0.5122
4810.00,0.5126
4809.00,0.5130
4808.00,0.5135
4807.00,0.5138
4806.00,0.5142
4805.00,0.5146
4804.00,0.5149
4803.00,0.5153
4802.00,0.5157
4801.00,0.5160
4800.00,0.5164
4799.00,0.5168
4798.00,0.5171
4797.00,0.5174
4796.00,0.5178
4795.00,0.5182
4794.00,0.5185
4793.00,0.5189
4792.00,0.5192
4791.00,0.5195
4790.00,0.5197
4789.00,0.5200
4788.00,0.5202
4787.00,0.5204
4786.00,0.5207
4785.00,0.5210
4784.00,0.5212
4783.00,0.5215
4782.00,0.5217
4781.00,0.5220
4780.00,0.5222
4779.00,0.5225
4778.00,0.5227
4777.00,0.5229
4776.00,0.5231
4775.00,0.5233
4774.00,0.5234
4773.00,0.5236
4772.00,0.5238
4771.00,0.5240
4770.00,0.5242
4769.00,0.5244
4768.00,0.5245
4767.00,0.5247
4766.00,0.5248
4765.00,0.5249
4764.00,0.5250
4763.00,0.5251
4762.00,0.5252
4761.00,0.5253
4760.00,0.5254
4759.00,0.5255
4758.00,0.5255
4757.00,0.5256
4756.00,0.5256
4755.00,0.5256
4754.00,0.5256
4753.00,0.5257
4752.00,0.5257
4751.00,0.5258
4750.00,0.5258
4749.00,0.5258
4748.00,0.5258
4747.00,0.5258
4746.00,0.5258
4745.00,0.5258
4744.00,0.5258
4743.00,0.5258
4742.00,0.5258
4741.00,0.5257
4740.00,0.5257
4739.00,0.5256
4738.00,0.5255
4737.00,0.5253
4736.00,0.5251
4735.00,0.5250
4734.00,0.5248
4733.00,0.5247
4732.00,0.5245
4731.00,0.5244
4730.00,0.5243
4729.00,0.5241
4728.00,0.5240
4727.00,0.5238
4726.00,0.5237
4725.00,0.5235
4724.00,0.5233
4723.00,0.5231
4722.00,0.5229
4721.00,0.5227
4720.00,0.5225
4719.00,0.5223
4718.00,0.5222
4717.00,0.5220
4716.00,0.5218
4715.00,0.5215
4714.00,0.5212
4713.00,0.5209
4712.00,0.5205
4711.00,0.5202
4710.00,0.5199
4709.00,0.5196
4708.00,0.5194
4707.00,0.5192
4706.00,0.5189
4705.00,0.5187
4704.00,0.5184
4703.00,0.5180
4702.00,0.5177
4701.00,0.5174
4700.00,0.5172
4699.00,0.5169
4698.00,0.5167
4697.00,0.5164
4696.00,0.5161
4695.00,0.5158
4694.00,0.5155
4693.00,0.5152
4692.00,0.5149
4691.00,0.5146
4690.00,0.5143
4689.00,0.5141
4688.00,0.5138
4687.00,0.5134
4686.00,0.5131
4685.00,0.5128
4684.00,0.5125
4683.00,0.5122
4682.00,0.5119
4681.00,0.5116
4680.00,0.5114
4679.00,0.5111
4678.00,0.5108
4677.00,0.5105
4676.00,0.5102
4675.00,0.5100
4674.00,0.5097
4673.00,0.5094
4672.00,0.5091
4671.00,0.5088
4670.00,0.5085
4669.00,0.5082
4668.00,0.5079
4667.00,0.5076
4666.00,0.5073
4665.00,0.5070
4664.00,0.5067
4663.00,0.5064
4662.00,0.5061
4661.00,0.5059
4660.00,0.5056
4659.00,0.5053
4658.00,0.5050
4657.00,0.5047
4656.00,0.5043
4655.00,0.5040
4654.00,0.5037
4653.00,0.5034
4652.00,0.5031
4651.00,0.5028
4650.00,0.5026
4649.00,0.5024
4648.00,0.5021
4647.00,0.5018
4646.00,0.5015
4645.00,0.5012
4644.00,0.5009
4643.00,0.5007
4642.00,0.5004
4641.00,0.5002
4640.00,0.4999
4639.00,0.4996
4638.00,0.4993
4637.00,0.4991
4636.00,0.4988
4635.00,0.4986
4634.00,0.4984
4633.00,0.4981
4632.00,0.4979
4631.00,0.4977
4630.00,0.4974
4629.00,0.4972
4628.00,0.4969
4627.00,0.4967
4626.00,0.4965
4625.00,0.4963
4624.00,0.4961
4623.00,0.4959
4622.00,0.4957
4621.00,0.4955
4620.00,0.4953
4619.00,0.4952
4618.00,0.4950
4617.00,0.4947
4616.00,0.4945
4615.00,0.4943
4614.00,0.4941
4613.00,0.4939
4612.00,0.4937
4611.00,0.4935
4610.00,0.4933
4609.00,0.4931
4608.00,0.4929
4607.00,0.4928
4606.00,0.4926
4605.00,0.4924
4604.00,0.4922
4603.00,0.4921
4602.00,0.4919
4601.00,0.4917
4600.00,0.4915
4599.00,0.4913
4598.00,0.4912
4597.00,0.4910
4596.00,0.4908
4595.00,0.4907
4594.00,0.4905
4593.00,0.4903
4592.00,0.4901
4591.00,0.4899
4590.00,0.4897
4589.00,0.4896
4588.00,0.4895
4587.00,0.4894
4586.00,0.4893
4585.00,0.4891
4584.00,0.4890
4583.00,0.4888
4582.00,0.4887
4581.00,0.4885
4580.00,0.4883
4579.00,0.4882
4578.00,0.4880
4577.00,0.4878
4576.00,0.4876
4575.00,0.4874
4574.00,0.4873
4573.00,0.4871
4572.00,0.4870
4571.00,0.4868
4570.00,0.4867
4569.00,0.4866
4568.00,0.4865
4567.00,0.4863
4566.00,0.4862
4565.00,0.4860
4564.00,0.4859
4563.00,0.4857
4562.00,0.4855
4561.00,0.4853
4560.00,0.4851
4559.00,0.4849
4558.00,0.4847
4557.00,0.4845
4556.00,0.4843
4555.00,0.4841
4554.00,0.4839
4553.00,0.4837
4552.00,0.4835
4551.00,0.4832
4550.00,0.4830
4549.00,0.4827
4548.00,0.4824
4547.00,0.4822
4546.00,0.4820
4545.00,0.4818
4544.00,0.4816
4543.00,0.4814
4542.00,0.4812
4541.00,0.4810
4540.00,0.4808
4539.00,0.4806
4538.00,0.4803
4537.00,0.4801
4536.00,0.4798
4535.00,0.4796
4534.00,0.4794
4533.00,0.4792
4532.00,0.4790
4531.00,0.4788
4530.00,0.4785
4529.00,0.4782
4528.00,0.4779
4527.00,0.4777
4526.00,0.4774
4525.00,0.4772
4524.00,0.4769
4523.00,0.4766
4522.00,0.4764
4521.00,0.4761
4520.00,0.4758
4519.00,0.4755
4518.00,0.4752
4517.00,0.4750
4516.00,0.4747
4515.00,0.4744
4514.00,0.4742
4513.00,0.4739
4512.00,0.4737
4511.00,0.4735
4510.00,0.4733
4509.00,0.4730
4508.00,0.4728
4507.00,0.4725
4506.00,0.4723
4505.00,0.4720
4504.00,0.4718
4503.00,0.4716
4502.00,0.4715
4501.00,0.4713
4500.00,0.4710
4499.00,0.4708
4498.00,0.4707
4497.00,0.4705
4496.00,0.4705
4495.00,0.4704
4494.00,0.4703
4493.00,0.4703
4492.00,0.4702
4491.00,0.4701
4490.00,0.4700
4489.00,0.4700
4488.00,0.4700
4487.00,0.4701
4486.00,0.4701
4485.00,0.4701
4484.00,0.4702
4483.00,0.4703
4482.00,0.4704
4481.00,0.4705
4480.00,0.4706
4479.00,0.4708
4478.00,0.4709
4477.00,0.4710
4476.00,0.4712
4475.00,0.4714
4474.00,0.4716
4473.00,0.4720
4472.00,0.4723
4471.00,0.4727
4470.00,0.4731
4469.00,0.4735
4468.00,0.4739
4467.00,0.4743
4466.00,0.4748
4465.00,0.4752
4464.00,0.4757
4463.00,0.4761
4462.00,0.4765
4461.00,0.4770
4460.00,0.4774
4459.00,0.4779
4458.00,0.4785
4457.00,0.4790
4456.00,0.4796
4455.00,0.4802
4454.00,0.4808
4453.00,0.4813
4452.00,0.4819
4451.00,0.4825
4450.00,0.4830
4449.00,0.4835
4448.00,0.4841
4447.00,0.4847
4446.00,0.4853
4445.00,0.4860
4444.00,0.4866
4443.00,0.4873
4442.00,0.4879
4441.00,0.4885
4440.00,0.4891
4439.00,0.4897
4438.00,0.4903
4437.00,0.4910
4436.00,0.4917
4435.00,0.4924
4434.00,0.4932
4433.00,0.4939
4432.00,0.4946
4431.00,0.4954
4430.00,0.4961
4429.00,0.4968
4428.00,0.4976
4427.00,0.4984
4426.00,0.4992
4425.00,0.4999
4424.00,0.5006
4423.00,0.5013
4422.00,0.5021
4421.00,0.5028
4420.00,0.5035
4419.00,0.5042
4418.00,0.5049
4417.00,0.5056
4416.00,0.5062
4415.00,0.5069
4414.00,0.5075
4413.00,0.5080
4412.00,0.5086
4411.00,0.5092
4410.00,0.5098
4409.00,0.5104
4408.00,0.5110
4407.00,0.5115
4406.00,0.5120
4405.00,0.5124
4404.00,0.5129
4403.00,0.5133
4402.00,0.5137
4401.00,0.5140
4400.00,0.5143
4399.00,0.5146
4398.00,0.5148
4397.00,0.5150
4396.00,0.5152
4395.00,0.5153
4394.00,0.5154
4393.00,0.5154
4392.00,0.5154
4391.00,0.5154
4390.00,0.5153
4389.00,0.5151
4388.00,0.5150
4387.00,0.5149
4386.00,0.5148
4385.00,0.5147
4384.00,0.5146
4383.00,0.5145
4382.00,0.5143
4381.00,0.5140
4380.00,0.5137
4379.00,0.5133
4378.00,0.5131
4377.00,0.5128
4376.00,0.5126
4375.00,0.5124
4374.00,0.5122
4373.00,0.5119
4372.00,0.5115
4371.00,0.5113
4370.00,0.5110
4369.00,0.5108
4368.00,0.5106
4367.00,0.5103
4366.00,0.5101
4365.00,0.5099
4364.00,0.5097
4363.00,0.5095
4362.00,0.5093
4361.00,0.5092
4360.00,0.5091
4359.00,0.5091
4358.00,0.5090
4357.00,0.5090
4356.00,0.5090
4355.00,0.5089
4354.00,0.5090
4353.00,0.5090
4352.00,0.5091
4351.00,0.5093
4350.00,0.5095
4349.00,0.5097
4348.00,0.5098
4347.00,0.5100
4346.00,0.5102
4345.00,0.5104
4344.00,0.5106
4343.00,0.5108
4342.00,0.5110
4341.00,0.5113
4340.00,0.5116
4339.00,0.5120
4338.00,0.5123
4337.00,0.5127
4336.00,0.5130
4335.00,0.5133
4334.00,0.5136
4333.00,0.5140
4332.00,0.5144
4331.00,0.5148
4330.00,0.5152
4329.00,0.5156
4328.00,0.5160
4327.00,0.5163
4326.00,0.5167
4325.00,0.5170
4324.00,0.5173
4323.00,0.5176
4322.00,0.5179
4321.00,0.5182
4320.00,0.5185
4319.00,0.5188
4318.00,0.5191
4317.00,0.5193
4316.00,0.5196
4315.00,0.5198
4314.00,0.5201
4313.00,0.5204
4312.00,0.5206
4311.00,0.5209
4310.00,0.5211
4309.00,0.5213
4308.00,0.5216
4307.00,0.5218
4306.00,0.5220
4305.00,0.5222
4304.00,0.5223
4303.00,0.5225
4302.00,0.5226
4301.00,0.5228
4300.00,0.5229
4299.00,0.5230
4298.00,0.5231
4297.00,0.5231
4296.00,0.5231
4295.00,0.5231
4294.00,0.5231
4293.00,0.5231
4292.00,0.5232
4291.00,0.5233
4290.00,0.5233
4289.00,0.5233
4288.00,0.5232
4287.00,0.5231
4286.00,0.5229
4285.00,0.5228
4284.00,0.5226
4283.00,0.5225
4282.00,0.5225
4281.00,0.5224
4280.00,0.5223
4279.00,0.5221
4278.00,0.5220
4277.00,0.5218
4276.00,0.5217
4275.00,0.5217
4274.00,0.5216
4273.00,0.5216
4272.00,0.5216
4271.00,0.5215
4270.00,0.5214
4269.00,0.5213
4268.00,0.5212
4267.00,0.5211
4266.00,0.5211
4265.00,0.5211
4264.00,0.5212
4263.00,0.5212
4262.00,0.5212
4261.00,0.5213
4260.00,0.5213
4259.00,0.5213
4258.00,0.5213
4257.00,0.5212
4256.00,0.5212
4255.00,0.5211
4254.00,0.5210
4253.00,0.5210
4252.00,0.5209
4251.00,0.5209
4250.00,0.5210
4249.00,0.5211
4248.00,0.5211
4247.00,0.5212
4246.00,0.5211
4245.00,0.5211
4244.00,0.5211
4243.00,0.5211
4242.00,0.5211
4241.00,0.5212
4240.00,0.5213
4239.00,0.5214
4238.00,0.5214
4237.00,0.5214
4236.00,0.5214
4235.00,0.5214
4234.00,0.5213
4233.00,0.5213
4232.00,0.5213
4231.00,0.5213
4230.00,0.5214
4229.00,0.5214
4228.00,0.5214
4227.00,0.5214
4226.00,0.5214
4225.00,0.5214
4224.00,0.5214
4223.00,0.5213
4222.00,0.5213
4221.00,0.5213
4220.00,0.5213
4219.00,0.5212
4218.00,0.5211
4217.00,0.5210
4216.00,0.5209
4215.00,0.5209
4214.00,0.5208
4213.00,0.5208
4212.00,0.5208
4211.00,0.5208
4210.00,0.5207
4209.00,0.5207
4208.00,0.5206
4207.00,0.5205
4206.00,0.5205
4205.00,0.5205
4204.00,0.5205
4203.00,0.5206
4202.00,0.5207
4201.00,0.5208
4200.00,0.5208
4199.00,0.5208
4198.00,0.5208
4197.00,0.5209
4196.00,0.5209
4195.00,0.5210
4194.00,0.5210
4193.00,0.5211
4192.00,0.5212
4191.00,0.5214
4190.00,0.5215
4189.00,0.5217
4188.00,0.5218
4187.00,0.5220
4186.00,0.5221
4185.00,0.5223
4184.00,0.5225
4183.00,0.5228
4182.00,0.5230
4181.00,0.5232
4180.00,0.5234
4179.00,0.5237
4178.00,0.5241
4177.00,0.5244
4176.00,0.5247
4175.00,0.5250
4174.00,0.5252
4173.00,0.5255
4172.00,0.5258
4171.00,0.5262
4170.00,0.5266
4169.00,0.5269
4168.00,0.5273
4167.00,0.5276
4166.00,0.5280
4165.00,0.5284
4164.00,0.5289
4163.00,0.5293
4162.00,0.5298
4161.00,0.5303
4160.00,0.5308
4159.00,0.5314
4158.00,0.5319
4157.00,0.5325
4156.00,0.5330
4155.00,0.5336
4154.00,0.5343
4153.00,0.5349
4152.00,0.5355
4151.00,0.5362
4150.00,0.5367
4149.00,0.5373
4148.00,0.5380
4147.00,0.5387
4146.00,0.5395
4145.00,0.5403
4144.00,0.5411
4143.00,0.5419
4142.00,0.5426
4141.00,0.5433
4140.00,0.5440
4139.00,0.5448
4138.00,0.5456
4137.00,0.5464
4136.00,0.5472
4135.00,0.5480
4134.00,0.5488
4133.00,0.5495
4132.00,0.5502
4131.00,0.5511
4130.00,0.5520
4129.00,0.5530
4128.00,0.5540
4127.00,0.5550
4126.00,0.5560
4125.00,0.5569
4124.00,0.5578
4123.00,0.5588
4122.00,0.5597
4121.00,0.5607
4120.00,0.5617
4119.00,0.5626
4118.00,0.5636
4117.00,0.5646
4116.00,0.5656
4115.00,0.5666
4114.00,0.5677
4113.00,0.5688
4112.00,0.5699
4111.00,0.5710
4110.00,0.5721
4109.00,0.5732
4108.00,0.5744
4107.00,0.5755
4106.00,0.5766
4105.00,0.5777
4104.00,0.5787
4103.00,0.5798
4102.00,0.5809
4101.00,0.5820
4100.00,0.5832
4099.00,0.5844
4098.00,0.5856
4097.00,0.5868
4096.00,0.5881
4095.00,0.5893
4094.00,0.5906
4093.00,0.5918
4092.00,0.5932
4091.00,0.5945
4090.00,0.5958
4089.00,0.5970
4088.00,0.5983
4087.00,0.5995
4086.00,0.6007
4085.00,0.6019
4084.00,0.6032
4083.00,0.6045
4082.00,0.6059
4081.00,0.6071
4080.00,0.6084
4079.00,0.6095
4078.00,0.6107
4077.00,0.6119
4076.00,0.6132
4075.00,0.6146
4074.00,0.6160
4073.00,0.6173
4072.00,0.6186
4071.00,0.6198
4070.00,0.6211
4069.00,0.6225
4068.00,0.6240
4067.00,0.6254
4066.00,0.6268
4065.00,0.6282
4064.00,0.6295
4063.00,0.6309
4062.00,0.6323
4061.00,0.6336
4060.00,0.6349
4059.00,0.6361
4058.00,0.6373
4057.00,0.6386
4056.00,0.6399
4055.00,0.6412
4054.00,0.6424
4053.00,0.6437
4052.00,0.6449
4051.00,0.6461
4050.00,0.6474
4049.00,0.6487
4048.00,0.6501
4047.00,0.6514
4046.00,0.6528
4045.00,0.6540
4044.00,0.6551
4043.00,0.6562
4042.00,0.6573
4041.00,0.6583
4040.00,0.6594
4039.00,0.6605
4038.00,0.6616
4037.00,0.6626
4036.00,0.6637
4035.00,0.6647
4034.00,0.6657
4033.00,0.6666
4032.00,0.6675
4031.00,0.6684
4030.00,0.6693
4029.00,0.6703
4028.00,0.6712
4027.00,0.6721
4026.00,0.6729
4025.00,0.6735
4024.00,0.6740
4023.00,0.6746
4022.00,0.6752
4021.00,0.6759
4020.00,0.6765
4019.00,0.6770
4018.00,0.6774
4017.00,0.6777
4016.00,0.6780
4015.00,0.6783
4014.00,0.6785
4013.00,0.6788
4012.00,0.6791
4011.00,0.6794
4010.00,0.6797
4009.00,0.6798
4008.00,0.6797
4007.00,0.6796
4006.00,0.6795
4005.00,0.6794
4004.00,0.6793
4003.00,0.6791
4002.00,0.6788
4001.00,0.6785
4000.00,0.6783
   㕕侱�
♼⠨⚚