Created As ASCII File,样品 075 用户 Administrator 日期 星期三, 四月 21 2021
cm-1,A
12000.00,0.2044
11999.00,0.2041
11998.00,0.2039
11997.00,0.2038
11996.00,0.2038
11995.00,0.2039
11994.00,0.2040
11993.00,0.2040
11992.00,0.2040
11991.00,0.2040
11990.00,0.2041
11989.00,0.2042
11988.00,0.2043
11987.00,0.2045
11986.00,0.2048
11985.00,0.2051
11984.00,0.2055
11983.00,0.2059
11982.00,0.2061
11981.00,0.2063
11980.00,0.2064
11979.00,0.2063
11978.00,0.2063
11977.00,0.2062
11976.00,0.2061
11975.00,0.2060
11974.00,0.2059
11973.00,0.2057
11972.00,0.2054
11971.00,0.2051
11970.00,0.2048
11969.00,0.2045
11968.00,0.2043
11967.00,0.2043
11966.00,0.2045
11965.00,0.2048
11964.00,0.2051
11963.00,0.2053
11962.00,0.2053
11961.00,0.2052
11960.00,0.2050
11959.00,0.2049
11958.00,0.2049
11957.00,0.2050
11956.00,0.2052
11955.00,0.2052
11954.00,0.2052
11953.00,0.2049
11952.00,0.2047
11951.00,0.2044
11950.00,0.2043
11949.00,0.2042
11948.00,0.2043
11947.00,0.2045
11946.00,0.2047
11945.00,0.2050
11944.00,0.2053
11943.00,0.2055
11942.00,0.2055
11941.00,0.2054
11940.00,0.2052
11939.00,0.2049
11938.00,0.2047
11937.00,0.2048
11936.00,0.2050
11935.00,0.2052
11934.00,0.2052
11933.00,0.2048
11932.00,0.2043
11931.00,0.2037
11930.00,0.2034
11929.00,0.2036
11928.00,0.2040
11927.00,0.2046
11926.00,0.2051
11925.00,0.2052
11924.00,0.2051
11923.00,0.2050
11922.00,0.2051
11921.00,0.2055
11920.00,0.2060
11919.00,0.2064
11918.00,0.2065
11917.00,0.2063
11916.00,0.2059
11915.00,0.2054
11914.00,0.2053
11913.00,0.2055
11912.00,0.2058
11911.00,0.2060
11910.00,0.2059
11909.00,0.2054
11908.00,0.2048
11907.00,0.2042
11906.00,0.2040
11905.00,0.2041
11904.00,0.2045
11903.00,0.2048
11902.00,0.2050
11901.00,0.2048
11900.00,0.2044
11899.00,0.2039
11898.00,0.2036
11897.00,0.2036
11896.00,0.2040
11895.00,0.2045
11894.00,0.2049
11893.00,0.2052
11892.00,0.2054
11891.00,0.2053
11890.00,0.2053
11889.00,0.2053
11888.00,0.2054
11887.00,0.2055
11886.00,0.2057
11885.00,0.2057
11884.00,0.2056
11883.00,0.2055
11882.00,0.2054
11881.00,0.2054
11880.00,0.2055
11879.00,0.2056
11878.00,0.2056
11877.00,0.2054
11876.00,0.2051
11875.00,0.2048
11874.00,0.2045
11873.00,0.2045
11872.00,0.2046
11871.00,0.2047
11870.00,0.2048
11869.00,0.2047
11868.00,0.2047
11867.00,0.2047
11866.00,0.2047
11865.00,0.2048
11864.00,0.2049
11863.00,0.2051
11862.00,0.2052
11861.00,0.2053
11860.00,0.2054
11859.00,0.2056
11858.00,0.2057
11857.00,0.2055
11856.00,0.2052
11855.00,0.2048
11854.00,0.2045
11853.00,0.2045
11852.00,0.2048
11851.00,0.2054
11850.00,0.2059
11849.00,0.2060
11848.00,0.2058
11847.00,0.2053
11846.00,0.2048
11845.00,0.2046
11844.00,0.2048
11843.00,0.2052
11842.00,0.2057
11841.00,0.2060
11840.00,0.2059
11839.00,0.2056
11838.00,0.2053
11837.00,0.2051
11836.00,0.2052
11835.00,0.2055
11834.00,0.2059
11833.00,0.2061
11832.00,0.2061
11831.00,0.2059
11830.00,0.2056
11829.00,0.2054
11828.00,0.2052
11827.00,0.2053
11826.00,0.2054
11825.00,0.2055
11824.00,0.2055
11823.00,0.2053
11822.00,0.2051
11821.00,0.2050
11820.00,0.2050
11819.00,0.2051
11818.00,0.2053
11817.00,0.2054
11816.00,0.2053
11815.00,0.2051
11814.00,0.2047
11813.00,0.2046
11812.00,0.2047
11811.00,0.2052
11810.00,0.2059
11809.00,0.2064
11808.00,0.2065
11807.00,0.2063
11806.00,0.2060
11805.00,0.2057
11804.00,0.2057
11803.00,0.2058
11802.00,0.2060
11801.00,0.2060
11800.00,0.2057
11799.00,0.2051
11798.00,0.2046
11797.00,0.2043
11796.00,0.2043
11795.00,0.2046
11794.00,0.2048
11793.00,0.2050
11792.00,0.2050
11791.00,0.2049
11790.00,0.2050
11789.00,0.2053
11788.00,0.2057
11787.00,0.2060
11786.00,0.2061
11785.00,0.2060
11784.00,0.2056
11783.00,0.2052
11782.00,0.2050
11781.00,0.2050
11780.00,0.2053
11779.00,0.2055
11778.00,0.2057
11777.00,0.2057
11776.00,0.2054
11775.00,0.2049
11774.00,0.2045
11773.00,0.2042
11772.00,0.2041
11771.00,0.2042
11770.00,0.2046
11769.00,0.2051
11768.00,0.2054
11767.00,0.2056
11766.00,0.2055
11765.00,0.2054
11764.00,0.2054
11763.00,0.2055
11762.00,0.2059
11761.00,0.2064
11760.00,0.2067
11759.00,0.2067
11758.00,0.2063
11757.00,0.2058
11756.00,0.2053
11755.00,0.2050
11754.00,0.2049
11753.00,0.2051
11752.00,0.2053
11751.00,0.2055
11750.00,0.2056
11749.00,0.2056
11748.00,0.2055
11747.00,0.2054
11746.00,0.2053
11745.00,0.2053
11744.00,0.2052
11743.00,0.2052
11742.00,0.2052
11741.00,0.2051
11740.00,0.2049
11739.00,0.2047
11738.00,0.2046
11737.00,0.2045
11736.00,0.2047
11735.00,0.2051
11734.00,0.2056
11733.00,0.2061
11732.00,0.2065
11731.00,0.2067
11730.00,0.2067
11729.00,0.2065
11728.00,0.2064
11727.00,0.2062
11726.00,0.2061
11725.00,0.2062
11724.00,0.2062
11723.00,0.2063
11722.00,0.2064
11721.00,0.2064
11720.00,0.2062
11719.00,0.2059
11718.00,0.2057
11717.00,0.2056
11716.00,0.2057
11715.00,0.2061
11714.00,0.2066
11713.00,0.2070
11712.00,0.2071
11711.00,0.2068
11710.00,0.2061
11709.00,0.2055
11708.00,0.2050
11707.00,0.2049
11706.00,0.2050
11705.00,0.2052
11704.00,0.2052
11703.00,0.2050
11702.00,0.2046
11701.00,0.2043
11700.00,0.2042
11699.00,0.2046
11698.00,0.2051
11697.00,0.2057
11696.00,0.2061
11695.00,0.2061
11694.00,0.2059
11693.00,0.2057
11692.00,0.2057
11691.00,0.2058
11690.00,0.2060
11689.00,0.2061
11688.00,0.2061
11687.00,0.2059
11686.00,0.2057
11685.00,0.2056
11684.00,0.2057
11683.00,0.2059
11682.00,0.2062
11681.00,0.2064
11680.00,0.2064
11679.00,0.2063
11678.00,0.2062
11677.00,0.2062
11676.00,0.2062
11675.00,0.2062
11674.00,0.2061
11673.00,0.2059
11672.00,0.2057
11671.00,0.2056
11670.00,0.2057
11669.00,0.2059
11668.00,0.2062
11667.00,0.2063
11666.00,0.2062
11665.00,0.2059
11664.00,0.2056
11663.00,0.2055
11662.00,0.2055
11661.00,0.2057
11660.00,0.2060
11659.00,0.2062
11658.00,0.2061
11657.00,0.2059
11656.00,0.2055
11655.00,0.2052
11654.00,0.2051
11653.00,0.2051
11652.00,0.2052
11651.00,0.2054
11650.00,0.2056
11649.00,0.2057
11648.00,0.2056
11647.00,0.2055
11646.00,0.2055
11645.00,0.2055
11644.00,0.2056
11643.00,0.2059
11642.00,0.2062
11641.00,0.2063
11640.00,0.2061
11639.00,0.2058
11638.00,0.2054
11637.00,0.2052
11636.00,0.2052
11635.00,0.2054
11634.00,0.2057
11633.00,0.2058
11632.00,0.2057
11631.00,0.2054
11630.00,0.2052
11629.00,0.2053
11628.00,0.2057
11627.00,0.2064
11626.00,0.2070
11625.00,0.2072
11624.00,0.2068
11623.00,0.2062
11622.00,0.2055
11621.00,0.2053
11620.00,0.2057
11619.00,0.2064
11618.00,0.2072
11617.00,0.2076
11616.00,0.2075
11615.00,0.2069
11614.00,0.2062
11613.00,0.2059
11612.00,0.2059
11611.00,0.2064
11610.00,0.2069
11609.00,0.2071
11608.00,0.2070
11607.00,0.2066
11606.00,0.2061
11605.00,0.2058
11604.00,0.2057
11603.00,0.2059
11602.00,0.2063
11601.00,0.2066
11600.00,0.2068
11599.00,0.2070
11598.00,0.2070
11597.00,0.2071
11596.00,0.2071
11595.00,0.2071
11594.00,0.2070
11593.00,0.2068
11592.00,0.2067
11591.00,0.2066
11590.00,0.2065
11589.00,0.2066
11588.00,0.2067
11587.00,0.2067
11586.00,0.2066
11585.00,0.2064
11584.00,0.2063
11583.00,0.2063
11582.00,0.2064
11581.00,0.2066
11580.00,0.2067
11579.00,0.2067
11578.00,0.2066
11577.00,0.2065
11576.00,0.2064
11575.00,0.2065
11574.00,0.2066
11573.00,0.2067
11572.00,0.2067
11571.00,0.2065
11570.00,0.2062
11569.00,0.2061
11568.00,0.2062
11567.00,0.2065
11566.00,0.2069
11565.00,0.2071
11564.00,0.2071
11563.00,0.2070
11562.00,0.2069
11561.00,0.2069
11560.00,0.2070
11559.00,0.2072
11558.00,0.2073
11557.00,0.2072
11556.00,0.2069
11555.00,0.2066
11554.00,0.2064
11553.00,0.2062
11552.00,0.2061
11551.00,0.2060
11550.00,0.2057
11549.00,0.2054
11548.00,0.2051
11547.00,0.2050
11546.00,0.2050
11545.00,0.2052
11544.00,0.2053
11543.00,0.2055
11542.00,0.2056
11541.00,0.2057
11540.00,0.2058
11539.00,0.2059
11538.00,0.2059
11537.00,0.2058
11536.00,0.2058
11535.00,0.2058
11534.00,0.2059
11533.00,0.2062
11532.00,0.2065
11531.00,0.2067
11530.00,0.2067
11529.00,0.2066
11528.00,0.2064
11527.00,0.2063
11526.00,0.2063
11525.00,0.2066
11524.00,0.2069
11523.00,0.2071
11522.00,0.2072
11521.00,0.2071
11520.00,0.2070
11519.00,0.2068
11518.00,0.2066
11517.00,0.2066
11516.00,0.2067
11515.00,0.2069
11514.00,0.2072
11513.00,0.2074
11512.00,0.2073
11511.00,0.2071
11510.00,0.2067
11509.00,0.2064
11508.00,0.2061
11507.00,0.2060
11506.00,0.2060
11505.00,0.2061
11504.00,0.2061
11503.00,0.2059
11502.00,0.2057
11501.00,0.2055
11500.00,0.2054
11499.00,0.2055
11498.00,0.2056
11497.00,0.2057
11496.00,0.2056
11495.00,0.2055
11494.00,0.2053
11493.00,0.2053
11492.00,0.2054
11491.00,0.2056
11490.00,0.2058
11489.00,0.2059
11488.00,0.2059
11487.00,0.2059
11486.00,0.2058
11485.00,0.2059
11484.00,0.2060
11483.00,0.2062
11482.00,0.2064
11481.00,0.2064
11480.00,0.2063
11479.00,0.2061
11478.00,0.2058
11477.00,0.2056
11476.00,0.2055
11475.00,0.2055
11474.00,0.2057
11473.00,0.2059
11472.00,0.2062
11471.00,0.2063
11470.00,0.2064
11469.00,0.2064
11468.00,0.2064
11467.00,0.2066
11466.00,0.2068
11465.00,0.2071
11464.00,0.2073
11463.00,0.2074
11462.00,0.2073
11461.00,0.2071
11460.00,0.2069
11459.00,0.2067
11458.00,0.2065
11457.00,0.2064
11456.00,0.2063
11455.00,0.2063
11454.00,0.2062
11453.00,0.2062
11452.00,0.2063
11451.00,0.2063
11450.00,0.2063
11449.00,0.2063
11448.00,0.2064
11447.00,0.2065
11446.00,0.2068
11445.00,0.2071
11444.00,0.2074
11443.00,0.2075
11442.00,0.2074
11441.00,0.2071
11440.00,0.2067
11439.00,0.2065
11438.00,0.2064
11437.00,0.2065
11436.00,0.2067
11435.00,0.2068
11434.00,0.2068
11433.00,0.2065
11432.00,0.2061
11431.00,0.2058
11430.00,0.2057
11429.00,0.2059
11428.00,0.2064
11427.00,0.2070
11426.00,0.2074
11425.00,0.2076
11424.00,0.2073
11423.00,0.2069
11422.00,0.2066
11421.00,0.2065
11420.00,0.2067
11419.00,0.2070
11418.00,0.2073
11417.00,0.2072
11416.00,0.2068
11415.00,0.2061
11414.00,0.2056
11413.00,0.2055
11412.00,0.2057
11411.00,0.2061
11410.00,0.2065
11409.00,0.2067
11408.00,0.2065
11407.00,0.2063
11406.00,0.2061
11405.00,0.2061
11404.00,0.2063
11403.00,0.2065
11402.00,0.2067
11401.00,0.2067
11400.00,0.2066
11399.00,0.2066
11398.00,0.2067
11397.00,0.2068
11396.00,0.2068
11395.00,0.2068
11394.00,0.2067
11393.00,0.2066
11392.00,0.2068
11391.00,0.2071
11390.00,0.2075
11389.00,0.2077
11388.00,0.2076
11387.00,0.2072
11386.00,0.2067
11385.00,0.2064
11384.00,0.2064
11383.00,0.2067
11382.00,0.2071
11381.00,0.2072
11380.00,0.2069
11379.00,0.2065
11378.00,0.2059
11377.00,0.2056
11376.00,0.2057
11375.00,0.2059
11374.00,0.2063
11373.00,0.2065
11372.00,0.2066
11371.00,0.2066
11370.00,0.2066
11369.00,0.2066
11368.00,0.2066
11367.00,0.2067
11366.00,0.2067
11365.00,0.2067
11364.00,0.2067
11363.00,0.2067
11362.00,0.2066
11361.00,0.2066
11360.00,0.2065
11359.00,0.2064
11358.00,0.2061
11357.00,0.2059
11356.00,0.2059
11355.00,0.2060
11354.00,0.2062
11353.00,0.2064
11352.00,0.2066
11351.00,0.2066
11350.00,0.2065
11349.00,0.2063
11348.00,0.2061
11347.00,0.2060
11346.00,0.2060
11345.00,0.2062
11344.00,0.2064
11343.00,0.2067
11342.00,0.2068
11341.00,0.2068
11340.00,0.2066
11339.00,0.2063
11338.00,0.2061
11337.00,0.2061
11336.00,0.2064
11335.00,0.2068
11334.00,0.2071
11333.00,0.2071
11332.00,0.2070
11331.00,0.2068
11330.00,0.2067
11329.00,0.2067
11328.00,0.2070
11327.00,0.2073
11326.00,0.2075
11325.00,0.2077
11324.00,0.2077
11323.00,0.2078
11322.00,0.2079
11321.00,0.2081
11320.00,0.2082
11319.00,0.2082
11318.00,0.2082
11317.00,0.2081
11316.00,0.2080
11315.00,0.2080
11314.00,0.2079
11313.00,0.2079
11312.00,0.2078
11311.00,0.2077
11310.00,0.2075
11309.00,0.2072
11308.00,0.2069
11307.00,0.2066
11306.00,0.2065
11305.00,0.2064
11304.00,0.2065
11303.00,0.2065
11302.00,0.2065
11301.00,0.2065
11300.00,0.2064
11299.00,0.2065
11298.00,0.2067
11297.00,0.2070
11296.00,0.2074
11295.00,0.2077
11294.00,0.2078
11293.00,0.2077
11292.00,0.2075
11291.00,0.2073
11290.00,0.2072
11289.00,0.2071
11288.00,0.2071
11287.00,0.2071
11286.00,0.2072
11285.00,0.2073
11284.00,0.2073
11283.00,0.2074
11282.00,0.2073
11281.00,0.2072
11280.00,0.2072
11279.00,0.2073
11278.00,0.2075
11277.00,0.2079
11276.00,0.2081
11275.00,0.2082
11274.00,0.2079
11273.00,0.2076
11272.00,0.2073
11271.00,0.2072
11270.00,0.2074
11269.00,0.2077
11268.00,0.2079
11267.00,0.2078
11266.00,0.2075
11265.00,0.2071
11264.00,0.2068
11263.00,0.2066
11262.00,0.2066
11261.00,0.2066
11260.00,0.2066
11259.00,0.2064
11258.00,0.2063
11257.00,0.2063
11256.00,0.2065
11255.00,0.2067
11254.00,0.2069
11253.00,0.2069
11252.00,0.2068
11251.00,0.2067
11250.00,0.2067
11249.00,0.2069
11248.00,0.2072
11247.00,0.2075
11246.00,0.2077
11245.00,0.2076
11244.00,0.2076
11243.00,0.2075
11242.00,0.2075
11241.00,0.2075
11240.00,0.2076
11239.00,0.2075
11238.00,0.2074
11237.00,0.2072
11236.00,0.2071
11235.00,0.2070
11234.00,0.2069
11233.00,0.2067
11232.00,0.2066
11231.00,0.2066
11230.00,0.2068
11229.00,0.2071
11228.00,0.2075
11227.00,0.2078
11226.00,0.2081
11225.00,0.2082
11224.00,0.2082
11223.00,0.2082
11222.00,0.2083
11221.00,0.2084
11220.00,0.2084
11219.00,0.2083
11218.00,0.2080
11217.00,0.2077
11216.00,0.2074
11215.00,0.2073
11214.00,0.2074
11213.00,0.2075
11212.00,0.2076
11211.00,0.2076
11210.00,0.2075
11209.00,0.2075
11208.00,0.2076
11207.00,0.2078
11206.00,0.2081
11205.00,0.2083
11204.00,0.2084
11203.00,0.2083
11202.00,0.2080
11201.00,0.2077
11200.00,0.2073
11199.00,0.2070
11198.00,0.2069
11197.00,0.2069
11196.00,0.2070
11195.00,0.2072
11194.00,0.2073
11193.00,0.2072
11192.00,0.2071
11191.00,0.2070
11190.00,0.2070
11189.00,0.2072
11188.00,0.2074
11187.00,0.2076
11186.00,0.2076
11185.00,0.2074
11184.00,0.2071
11183.00,0.2070
11182.00,0.2070
11181.00,0.2071
11180.00,0.2073
11179.00,0.2074
11178.00,0.2073
11177.00,0.2072
11176.00,0.2071
11175.00,0.2070
11174.00,0.2070
11173.00,0.2071
11172.00,0.2071
11171.00,0.2072
11170.00,0.2072
11169.00,0.2073
11168.00,0.2074
11167.00,0.2075
11166.00,0.2075
11165.00,0.2075
11164.00,0.2075
11163.00,0.2075
11162.00,0.2076
11161.00,0.2077
11160.00,0.2077
11159.00,0.2077
11158.00,0.2076
11157.00,0.2075
11156.00,0.2074
11155.00,0.2072
11154.00,0.2072
11153.00,0.2073
11152.00,0.2074
11151.00,0.2076
11150.00,0.2077
11149.00,0.2077
11148.00,0.2075
11147.00,0.2073
11146.00,0.2073
11145.00,0.2074
11144.00,0.2076
11143.00,0.2077
11142.00,0.2076
11141.00,0.2073
11140.00,0.2069
11139.00,0.2067
11138.00,0.2068
11137.00,0.2071
11136.00,0.2075
11135.00,0.2077
11134.00,0.2076
11133.00,0.2074
11132.00,0.2072
11131.00,0.2072
11130.00,0.2074
11129.00,0.2077
11128.00,0.2079
11127.00,0.2079
11126.00,0.2078
11125.00,0.2076
11124.00,0.2076
11123.00,0.2076
11122.00,0.2076
11121.00,0.2076
11120.00,0.2076
11119.00,0.2076
11118.00,0.2078
11117.00,0.2080
11116.00,0.2081
11115.00,0.2081
11114.00,0.2080
11113.00,0.2079
11112.00,0.2078
11111.00,0.2078
11110.00,0.2079
11109.00,0.2080
11108.00,0.2080
11107.00,0.2079
11106.00,0.2079
11105.00,0.2079
11104.00,0.2081
11103.00,0.2082
11102.00,0.2083
11101.00,0.2084
11100.00,0.2085
11099.00,0.2085
11098.00,0.2085
11097.00,0.2084
11096.00,0.2083
11095.00,0.2082
11094.00,0.2080
11093.00,0.2080
11092.00,0.2080
11091.00,0.2080
11090.00,0.2079
11089.00,0.2078
11088.00,0.2077
11087.00,0.2076
11086.00,0.2077
11085.00,0.2077
11084.00,0.2077
11083.00,0.2077
11082.00,0.2076
11081.00,0.2076
11080.00,0.2076
11079.00,0.2077
11078.00,0.2076
11077.00,0.2074
11076.00,0.2071
11075.00,0.2068
11074.00,0.2067
11073.00,0.2069
11072.00,0.2073
11071.00,0.2076
11070.00,0.2078
11069.00,0.2077
11068.00,0.2074
11067.00,0.2072
11066.00,0.2072
11065.00,0.2074
11064.00,0.2078
11063.00,0.2081
11062.00,0.2083
11061.00,0.2085
11060.00,0.2085
11059.00,0.2084
11058.00,0.2084
11057.00,0.2083
11056.00,0.2083
11055.00,0.2083
11054.00,0.2083
11053.00,0.2084
11052.00,0.2084
11051.00,0.2082
11050.00,0.2079
11049.00,0.2075
11048.00,0.2072
11047.00,0.2071
11046.00,0.2071
11045.00,0.2073
11044.00,0.2074
11043.00,0.2074
11042.00,0.2073
11041.00,0.2071
11040.00,0.2070
11039.00,0.2069
11038.00,0.2069
11037.00,0.2068
11036.00,0.2067
11035.00,0.2067
11034.00,0.2067
11033.00,0.2069
11032.00,0.2071
11031.00,0.2074
11030.00,0.2077
11029.00,0.2078
11028.00,0.2080
11027.00,0.2080
11026.00,0.2081
11025.00,0.2081
11024.00,0.2080
11023.00,0.2079
11022.00,0.2078
11021.00,0.2078
11020.00,0.2080
11019.00,0.2080
11018.00,0.2080
11017.00,0.2077
11016.00,0.2074
11015.00,0.2071
11014.00,0.2071
11013.00,0.2073
11012.00,0.2077
11011.00,0.2081
11010.00,0.2083
11009.00,0.2083
11008.00,0.2083
11007.00,0.2084
11006.00,0.2086
11005.00,0.2089
11004.00,0.2091
11003.00,0.2091
11002.00,0.2089
11001.00,0.2085
11000.00,0.2081
10999.00,0.2078
10998.00,0.2076
10997.00,0.2075
10996.00,0.2073
10995.00,0.2072
10994.00,0.2072
10993.00,0.2072
10992.00,0.2073
10991.00,0.2076
10990.00,0.2078
10989.00,0.2081
10988.00,0.2083
10987.00,0.2085
10986.00,0.2086
10985.00,0.2085
10984.00,0.2082
10983.00,0.2079
10982.00,0.2076
10981.00,0.2075
10980.00,0.2077
10979.00,0.2080
10978.00,0.2083
10977.00,0.2083
10976.00,0.2081
10975.00,0.2078
10974.00,0.2075
10973.00,0.2075
10972.00,0.2077
10971.00,0.2081
10970.00,0.2083
10969.00,0.2082
10968.00,0.2079
10967.00,0.2074
10966.00,0.2071
10965.00,0.2071
10964.00,0.2074
10963.00,0.2077
10962.00,0.2080
10961.00,0.2081
10960.00,0.2079
10959.00,0.2076
10958.00,0.2074
10957.00,0.2073
10956.00,0.2073
10955.00,0.2075
10954.00,0.2077
10953.00,0.2078
10952.00,0.2079
10951.00,0.2080
10950.00,0.2081
10949.00,0.2082
10948.00,0.2085
10947.00,0.2090
10946.00,0.2094
10945.00,0.2098
10944.00,0.2100
10943.00,0.2099
10942.00,0.2095
10941.00,0.2090
10940.00,0.2085
10939.00,0.2081
10938.00,0.2080
10937.00,0.2080
10936.00,0.2080
10935.00,0.2079
10934.00,0.2078
10933.00,0.2076
10932.00,0.2075
10931.00,0.2076
10930.00,0.2078
10929.00,0.2080
10928.00,0.2081
10927.00,0.2081
10926.00,0.2080
10925.00,0.2078
10924.00,0.2076
10923.00,0.2074
10922.00,0.2073
10921.00,0.2072
10920.00,0.2073
10919.00,0.2075
10918.00,0.2078
10917.00,0.2079
10916.00,0.2080
10915.00,0.2080
10914.00,0.2080
10913.00,0.2081
10912.00,0.2083
10911.00,0.2087
10910.00,0.2089
10909.00,0.2090
10908.00,0.2089
10907.00,0.2086
10906.00,0.2083
10905.00,0.2081
10904.00,0.2080
10903.00,0.2080
10902.00,0.2079
10901.00,0.2077
10900.00,0.2074
10899.00,0.2069
10898.00,0.2065
10897.00,0.2063
10896.00,0.2063
10895.00,0.2066
10894.00,0.2069
10893.00,0.2071
10892.00,0.2073
10891.00,0.2074
10890.00,0.2075
10889.00,0.2077
10888.00,0.2078
10887.00,0.2078
10886.00,0.2078
10885.00,0.2077
10884.00,0.2076
10883.00,0.2076
10882.00,0.2076
10881.00,0.2076
10880.00,0.2075
10879.00,0.2074
10878.00,0.2072
10877.00,0.2070
10876.00,0.2068
10875.00,0.2068
10874.00,0.2068
10873.00,0.2068
10872.00,0.2069
10871.00,0.2070
10870.00,0.2070
10869.00,0.2069
10868.00,0.2067
10867.00,0.2066
10866.00,0.2066
10865.00,0.2067
10864.00,0.2069
10863.00,0.2071
10862.00,0.2072
10861.00,0.2073
10860.00,0.2075
10859.00,0.2076
10858.00,0.2078
10857.00,0.2079
10856.00,0.2078
10855.00,0.2077
10854.00,0.2076
10853.00,0.2076
10852.00,0.2077
10851.00,0.2078
10850.00,0.2078
10849.00,0.2077
10848.00,0.2074
10847.00,0.2072
10846.00,0.2071
10845.00,0.2072
10844.00,0.2074
10843.00,0.2075
10842.00,0.2075
10841.00,0.2074
10840.00,0.2073
10839.00,0.2072
10838.00,0.2073
10837.00,0.2073
10836.00,0.2072
10835.00,0.2071
10834.00,0.2069
10833.00,0.2067
10832.00,0.2066
10831.00,0.2065
10830.00,0.2065
10829.00,0.2064
10828.00,0.2062
10827.00,0.2061
10826.00,0.2060
10825.00,0.2061
10824.00,0.2062
10823.00,0.2063
10822.00,0.2064
10821.00,0.2064
10820.00,0.2065
10819.00,0.2067
10818.00,0.2070
10817.00,0.2073
10816.00,0.2075
10815.00,0.2077
10814.00,0.2078
10813.00,0.2078
10812.00,0.2077
10811.00,0.2076
10810.00,0.2075
10809.00,0.2074
10808.00,0.2073
10807.00,0.2073
10806.00,0.2074
10805.00,0.2074
10804.00,0.2074
10803.00,0.2075
10802.00,0.2076
10801.00,0.2076
10800.00,0.2077
10799.00,0.2077
10798.00,0.2077
10797.00,0.2077
10796.00,0.2076
10795.00,0.2075
10794.00,0.2074
10793.00,0.2073
10792.00,0.2071
10791.00,0.2070
10790.00,0.2069
10789.00,0.2069
10788.00,0.2069
10787.00,0.2069
10786.00,0.2069
10785.00,0.2069
10784.00,0.2071
10783.00,0.2074
10782.00,0.2078
10781.00,0.2080
10780.00,0.2081
10779.00,0.2079
10778.00,0.2077
10777.00,0.2074
10776.00,0.2073
10775.00,0.2073
10774.00,0.2074
10773.00,0.2074
10772.00,0.2073
10771.00,0.2071
10770.00,0.2069
10769.00,0.2068
10768.00,0.2069
10767.00,0.2072
10766.00,0.2075
10765.00,0.2077
10764.00,0.2078
10763.00,0.2077
10762.00,0.2076
10761.00,0.2074
10760.00,0.2073
10759.00,0.2072
10758.00,0.2071
10757.00,0.2070
10756.00,0.2069
10755.00,0.2068
10754.00,0.2069
10753.00,0.2072
10752.00,0.2075
10751.00,0.2079
10750.00,0.2081
10749.00,0.2082
10748.00,0.2080
10747.00,0.2077
10746.00,0.2076
10745.00,0.2076
10744.00,0.2077
10743.00,0.2079
10742.00,0.2080
10741.00,0.2079
10740.00,0.2077
10739.00,0.2075
10738.00,0.2074
10737.00,0.2074
10736.00,0.2075
10735.00,0.2076
10734.00,0.2076
10733.00,0.2076
10732.00,0.2077
10731.00,0.2078
10730.00,0.2080
10729.00,0.2080
10728.00,0.2079
10727.00,0.2077
10726.00,0.2076
10725.00,0.2076
10724.00,0.2077
10723.00,0.2078
10722.00,0.2077
10721.00,0.2074
10720.00,0.2071
10719.00,0.2069
10718.00,0.2070
10717.00,0.2073
10716.00,0.2076
10715.00,0.2077
10714.00,0.2077
10713.00,0.2076
10712.00,0.2076
10711.00,0.2076
10710.00,0.2078
10709.00,0.2079
10708.00,0.2078
10707.00,0.2077
10706.00,0.2075
10705.00,0.2074
10704.00,0.2073
10703.00,0.2074
10702.00,0.2076
10701.00,0.2078
10700.00,0.2080
10699.00,0.2080
10698.00,0.2079
10697.00,0.2076
10696.00,0.2073
10695.00,0.2071
10694.00,0.2071
10693.00,0.2073
10692.00,0.2075
10691.00,0.2076
10690.00,0.2076
10689.00,0.2075
10688.00,0.2075
10687.00,0.2075
10686.00,0.2077
10685.00,0.2078
10684.00,0.2078
10683.00,0.2076
10682.00,0.2073
10681.00,0.2070
10680.00,0.2068
10679.00,0.2068
10678.00,0.2069
10677.00,0.2070
10676.00,0.2071
10675.00,0.2071
10674.00,0.2071
10673.00,0.2072
10672.00,0.2073
10671.00,0.2074
10670.00,0.2075
10669.00,0.2076
10668.00,0.2075
10667.00,0.2073
10666.00,0.2071
10665.00,0.2070
10664.00,0.2069
10663.00,0.2069
10662.00,0.2069
10661.00,0.2069
10660.00,0.2069
10659.00,0.2069
10658.00,0.2070
10657.00,0.2071
10656.00,0.2073
10655.00,0.2075
10654.00,0.2076
10653.00,0.2077
10652.00,0.2077
10651.00,0.2078
10650.00,0.2080
10649.00,0.2082
10648.00,0.2084
10647.00,0.2085
10646.00,0.2084
10645.00,0.2081
10644.00,0.2079
10643.00,0.2078
10642.00,0.2079
10641.00,0.2079
10640.00,0.2080
10639.00,0.2079
10638.00,0.2078
10637.00,0.2078
10636.00,0.2078
10635.00,0.2080
10634.00,0.2081
10633.00,0.2083
10632.00,0.2085
10631.00,0.2085
10630.00,0.2085
10629.00,0.2085
10628.00,0.2083
10627.00,0.2082
10626.00,0.2081
10625.00,0.2081
10624.00,0.2083
10623.00,0.2085
10622.00,0.2086
10621.00,0.2086
10620.00,0.2085
10619.00,0.2084
10618.00,0.2084
10617.00,0.2086
10616.00,0.2089
10615.00,0.2091
10614.00,0.2092
10613.00,0.2091
10612.00,0.2090
10611.00,0.2089
10610.00,0.2089
10609.00,0.2090
10608.00,0.2090
10607.00,0.2091
10606.00,0.2090
10605.00,0.2089
10604.00,0.2088
10603.00,0.2087
10602.00,0.2086
10601.00,0.2085
10600.00,0.2085
10599.00,0.2086
10598.00,0.2087
10597.00,0.2089
10596.00,0.2091
10595.00,0.2091
10594.00,0.2092
10593.00,0.2093
10592.00,0.2094
10591.00,0.2096
10590.00,0.2097
10589.00,0.2097
10588.00,0.2096
10587.00,0.2093
10586.00,0.2091
10585.00,0.2090
10584.00,0.2089
10583.00,0.2090
10582.00,0.2090
10581.00,0.2090
10580.00,0.2090
10579.00,0.2091
10578.00,0.2091
10577.00,0.2093
10576.00,0.2094
10575.00,0.2094
10574.00,0.2094
10573.00,0.2093
10572.00,0.2091
10571.00,0.2090
10570.00,0.2090
10569.00,0.2090
10568.00,0.2090
10567.00,0.2091
10566.00,0.2092
10565.00,0.2091
10564.00,0.2091
10563.00,0.2091
10562.00,0.2091
10561.00,0.2093
10560.00,0.2095
10559.00,0.2097
10558.00,0.2098
10557.00,0.2099
10556.00,0.2099
10555.00,0.2098
10554.00,0.2098
10553.00,0.2098
10552.00,0.2098
10551.00,0.2098
10550.00,0.2099
10549.00,0.2099
10548.00,0.2098
10547.00,0.2097
10546.00,0.2094
10545.00,0.2092
10544.00,0.2092
10543.00,0.2093
10542.00,0.2095
10541.00,0.2098
10540.00,0.2101
10539.00,0.2102
10538.00,0.2103
10537.00,0.2103
10536.00,0.2103
10535.00,0.2103
10534.00,0.2103
10533.00,0.2103
10532.00,0.2103
10531.00,0.2102
10530.00,0.2100
10529.00,0.2099
10528.00,0.2099
10527.00,0.2100
10526.00,0.2101
10525.00,0.2103
10524.00,0.2103
10523.00,0.2104
10522.00,0.2105
10521.00,0.2107
10520.00,0.2109
10519.00,0.2110
10518.00,0.2110
10517.00,0.2108
10516.00,0.2105
10515.00,0.2103
10514.00,0.2103
10513.00,0.2105
10512.00,0.2106
10511.00,0.2108
10510.00,0.2108
10509.00,0.2107
10508.00,0.2107
10507.00,0.2109
10506.00,0.2112
10505.00,0.2116
10504.00,0.2118
10503.00,0.2119
10502.00,0.2117
10501.00,0.2115
10500.00,0.2113
10499.00,0.2112
10498.00,0.2113
10497.00,0.2114
10496.00,0.2115
10495.00,0.2114
10494.00,0.2113
10493.00,0.2113
10492.00,0.2113
10491.00,0.2114
10490.00,0.2117
10489.00,0.2120
10488.00,0.2122
10487.00,0.2123
10486.00,0.2123
10485.00,0.2122
10484.00,0.2121
10483.00,0.2120
10482.00,0.2119
10481.00,0.2118
10480.00,0.2118
10479.00,0.2117
10478.00,0.2118
10477.00,0.2119
10476.00,0.2120
10475.00,0.2121
10474.00,0.2121
10473.00,0.2121
10472.00,0.2121
10471.00,0.2122
10470.00,0.2123
10469.00,0.2124
10468.00,0.2126
10467.00,0.2126
10466.00,0.2125
10465.00,0.2122
10464.00,0.2119
10463.00,0.2117
10462.00,0.2116
10461.00,0.2117
10460.00,0.2119
10459.00,0.2121
10458.00,0.2123
10457.00,0.2124
10456.00,0.2124
10455.00,0.2125
10454.00,0.2125
10453.00,0.2126
10452.00,0.2126
10451.00,0.2126
10450.00,0.2127
10449.00,0.2128
10448.00,0.2129
10447.00,0.2129
10446.00,0.2129
10445.00,0.2127
10444.00,0.2125
10443.00,0.2123
10442.00,0.2123
10441.00,0.2125
10440.00,0.2127
10439.00,0.2130
10438.00,0.2131
10437.00,0.2131
10436.00,0.2130
10435.00,0.2128
10434.00,0.2128
10433.00,0.2128
10432.00,0.2130
10431.00,0.2132
10430.00,0.2133
10429.00,0.2134
10428.00,0.2135
10427.00,0.2134
10426.00,0.2134
10425.00,0.2134
10424.00,0.2134
10423.00,0.2134
10422.00,0.2134
10421.00,0.2133
10420.00,0.2131
10419.00,0.2129
10418.00,0.2126
10417.00,0.2125
10416.00,0.2125
10415.00,0.2125
10414.00,0.2125
10413.00,0.2126
10412.00,0.2128
10411.00,0.2131
10410.00,0.2135
10409.00,0.2139
10408.00,0.2142
10407.00,0.2143
10406.00,0.2142
10405.00,0.2142
10404.00,0.2142
10403.00,0.2143
10402.00,0.2144
10401.00,0.2142
10400.00,0.2139
10399.00,0.2136
10398.00,0.2135
10397.00,0.2137
10396.00,0.2140
10395.00,0.2143
10394.00,0.2145
10393.00,0.2145
10392.00,0.2145
10391.00,0.2145
10390.00,0.2146
10389.00,0.2148
10388.00,0.2149
10387.00,0.2149
10386.00,0.2148
10385.00,0.2146
10384.00,0.2143
10383.00,0.2141
10382.00,0.2139
10381.00,0.2139
10380.00,0.2140
10379.00,0.2141
10378.00,0.2141
10377.00,0.2141
10376.00,0.2140
10375.00,0.2140
10374.00,0.2140
10373.00,0.2142
10372.00,0.2143
10371.00,0.2143
10370.00,0.2143
10369.00,0.2141
10368.00,0.2140
10367.00,0.2140
10366.00,0.2140
10365.00,0.2140
10364.00,0.2141
10363.00,0.2142
10362.00,0.2143
10361.00,0.2145
10360.00,0.2147
10359.00,0.2148
10358.00,0.2149
10357.00,0.2150
10356.00,0.2151
10355.00,0.2153
10354.00,0.2154
10353.00,0.2154
10352.00,0.2154
10351.00,0.2154
10350.00,0.2154
10349.00,0.2154
10348.00,0.2155
10347.00,0.2156
10346.00,0.2158
10345.00,0.2159
10344.00,0.2161
10343.00,0.2162
10342.00,0.2163
10341.00,0.2162
10340.00,0.2160
10339.00,0.2158
10338.00,0.2157
10337.00,0.2157
10336.00,0.2157
10335.00,0.2158
10334.00,0.2157
10333.00,0.2155
10332.00,0.2154
10331.00,0.2152
10330.00,0.2152
10329.00,0.2153
10328.00,0.2154
10327.00,0.2156
10326.00,0.2158
10325.00,0.2160
10324.00,0.2160
10323.00,0.2160
10322.00,0.2160
10321.00,0.2160
10320.00,0.2162
10319.00,0.2164
10318.00,0.2166
10317.00,0.2166
10316.00,0.2166
10315.00,0.2164
10314.00,0.2162
10313.00,0.2161
10312.00,0.2161
10311.00,0.2162
10310.00,0.2164
10309.00,0.2165
10308.00,0.2166
10307.00,0.2166
10306.00,0.2164
10305.00,0.2164
10304.00,0.2164
10303.00,0.2166
10302.00,0.2169
10301.00,0.2172
10300.00,0.2172
10299.00,0.2171
10298.00,0.2169
10297.00,0.2167
10296.00,0.2166
10295.00,0.2166
10294.00,0.2166
10293.00,0.2167
10292.00,0.2167
10291.00,0.2166
10290.00,0.2166
10289.00,0.2165
10288.00,0.2165
10287.00,0.2166
10286.00,0.2167
10285.00,0.2168
10284.00,0.2169
10283.00,0.2170
10282.00,0.2171
10281.00,0.2172
10280.00,0.2173
10279.00,0.2175
10278.00,0.2176
10277.00,0.2177
10276.00,0.2178
10275.00,0.2178
10274.00,0.2178
10273.00,0.2179
10272.00,0.2179
10271.00,0.2179
10270.00,0.2177
10269.00,0.2174
10268.00,0.2172
10267.00,0.2171
10266.00,0.2172
10265.00,0.2174
10264.00,0.2176
10263.00,0.2177
10262.00,0.2178
10261.00,0.2177
10260.00,0.2178
10259.00,0.2179
10258.00,0.2180
10257.00,0.2180
10256.00,0.2179
10255.00,0.2177
10254.00,0.2176
10253.00,0.2175
10252.00,0.2177
10251.00,0.2178
10250.00,0.2180
10249.00,0.2180
10248.00,0.2180
10247.00,0.2180
10246.00,0.2180
10245.00,0.2181
10244.00,0.2183
10243.00,0.2184
10242.00,0.2185
10241.00,0.2185
10240.00,0.2185
10239.00,0.2184
10238.00,0.2184
10237.00,0.2184
10236.00,0.2184
10235.00,0.2184
10234.00,0.2184
10233.00,0.2185
10232.00,0.2185
10231.00,0.2184
10230.00,0.2183
10229.00,0.2183
10228.00,0.2183
10227.00,0.2185
10226.00,0.2187
10225.00,0.2190
10224.00,0.2191
10223.00,0.2192
10222.00,0.2192
10221.00,0.2191
10220.00,0.2190
10219.00,0.2189
10218.00,0.2187
10217.00,0.2186
10216.00,0.2185
10215.00,0.2185
10214.00,0.2185
10213.00,0.2185
10212.00,0.2185
10211.00,0.2185
10210.00,0.2186
10209.00,0.2188
10208.00,0.2190
10207.00,0.2191
10206.00,0.2192
10205.00,0.2191
10204.00,0.2190
10203.00,0.2189
10202.00,0.2189
10201.00,0.2189
10200.00,0.2191
10199.00,0.2194
10198.00,0.2196
10197.00,0.2198
10196.00,0.2198
10195.00,0.2197
10194.00,0.2196
10193.00,0.2195
10192.00,0.2195
10191.00,0.2196
10190.00,0.2196
10189.00,0.2195
10188.00,0.2193
10187.00,0.2192
10186.00,0.2191
10185.00,0.2191
10184.00,0.2193
10183.00,0.2195
10182.00,0.2196
10181.00,0.2196
10180.00,0.2197
10179.00,0.2198
10178.00,0.2199
10177.00,0.2198
10176.00,0.2197
10175.00,0.2196
10174.00,0.2195
10173.00,0.2195
10172.00,0.2196
10171.00,0.2197
10170.00,0.2197
10169.00,0.2198
10168.00,0.2198
10167.00,0.2198
10166.00,0.2199
10165.00,0.2200
10164.00,0.2200
10163.00,0.2200
10162.00,0.2200
10161.00,0.2199
10160.00,0.2200
10159.00,0.2201
10158.00,0.2201
10157.00,0.2201
10156.00,0.2200
10155.00,0.2198
10154.00,0.2197
10153.00,0.2198
10152.00,0.2200
10151.00,0.2202
10150.00,0.2203
10149.00,0.2203
10148.00,0.2202
10147.00,0.2202
10146.00,0.2203
10145.00,0.2205
10144.00,0.2207
10143.00,0.2208
10142.00,0.2207
10141.00,0.2205
10140.00,0.2204
10139.00,0.2203
10138.00,0.2203
10137.00,0.2203
10136.00,0.2203
10135.00,0.2202
10134.00,0.2201
10133.00,0.2200
10132.00,0.2200
10131.00,0.2200
10130.00,0.2201
10129.00,0.2201
10128.00,0.2202
10127.00,0.2203
10126.00,0.2203
10125.00,0.2202
10124.00,0.2201
10123.00,0.2200
10122.00,0.2200
10121.00,0.2203
10120.00,0.2207
10119.00,0.2210
10118.00,0.2212
10117.00,0.2211
10116.00,0.2210
10115.00,0.2210
10114.00,0.2209
10113.00,0.2209
10112.00,0.2208
10111.00,0.2207
10110.00,0.2204
10109.00,0.2202
10108.00,0.2201
10107.00,0.2201
10106.00,0.2203
10105.00,0.2205
10104.00,0.2207
10103.00,0.2208
10102.00,0.2208
10101.00,0.2208
10100.00,0.2207
10099.00,0.2207
10098.00,0.2207
10097.00,0.2207
10096.00,0.2205
10095.00,0.2202
10094.00,0.2199
10093.00,0.2197
10092.00,0.2197
10091.00,0.2200
10090.00,0.2203
10089.00,0.2206
10088.00,0.2207
10087.00,0.2206
10086.00,0.2206
10085.00,0.2205
10084.00,0.2205
10083.00,0.2205
10082.00,0.2205
10081.00,0.2204
10080.00,0.2203
10079.00,0.2203
10078.00,0.2202
10077.00,0.2203
10076.00,0.2204
10075.00,0.2204
10074.00,0.2205
10073.00,0.2207
10072.00,0.2209
10071.00,0.2211
10070.00,0.2214
10069.00,0.2215
10068.00,0.2215
10067.00,0.2213
10066.00,0.2210
10065.00,0.2207
10064.00,0.2206
10063.00,0.2206
10062.00,0.2207
10061.00,0.2207
10060.00,0.2206
10059.00,0.2204
10058.00,0.2203
10057.00,0.2202
10056.00,0.2203
10055.00,0.2205
10054.00,0.2206
10053.00,0.2207
10052.00,0.2207
10051.00,0.2206
10050.00,0.2205
10049.00,0.2204
10048.00,0.2204
10047.00,0.2203
10046.00,0.2203
10045.00,0.2203
10044.00,0.2203
10043.00,0.2203
10042.00,0.2202
10041.00,0.2200
10040.00,0.2199
10039.00,0.2199
10038.00,0.2201
10037.00,0.2202
10036.00,0.2204
10035.00,0.2204
10034.00,0.2203
10033.00,0.2202
10032.00,0.2202
10031.00,0.2202
10030.00,0.2202
10029.00,0.2201
10028.00,0.2200
10027.00,0.2200
10026.00,0.2201
10025.00,0.2202
10024.00,0.2204
10023.00,0.2205
10022.00,0.2205
10021.00,0.2205
10020.00,0.2205
10019.00,0.2206
10018.00,0.2206
10017.00,0.2205
10016.00,0.2204
10015.00,0.2202
10014.00,0.2201
10013.00,0.2200
10012.00,0.2201
10011.00,0.2203
10010.00,0.2204
10009.00,0.2206
10008.00,0.2206
10007.00,0.2206
10006.00,0.2205
10005.00,0.2205
10004.00,0.2204
10003.00,0.2204
10002.00,0.2203
10001.00,0.2202
10000.00,0.2201
9999.00,0.2200
9998.00,0.2200
9997.00,0.2201
9996.00,0.2203
9995.00,0.2205
9994.00,0.2206
9993.00,0.2206
9992.00,0.2205
9991.00,0.2204
9990.00,0.2203
9989.00,0.2203
9988.00,0.2204
9987.00,0.2204
9986.00,0.2203
9985.00,0.2202
9984.00,0.2201
9983.00,0.2200
9982.00,0.2200
9981.00,0.2200
9980.00,0.2202
9979.00,0.2203
9978.00,0.2204
9977.00,0.2204
9976.00,0.2205
9975.00,0.2205
9974.00,0.2206
9973.00,0.2207
9972.00,0.2206
9971.00,0.2206
9970.00,0.2205
9969.00,0.2205
9968.00,0.2205
9967.00,0.2205
9966.00,0.2206
9965.00,0.2206
9964.00,0.2206
9963.00,0.2206
9962.00,0.2206
9961.00,0.2205
9960.00,0.2205
9959.00,0.2204
9958.00,0.2203
9957.00,0.2202
9956.00,0.2201
9955.00,0.2199
9954.00,0.2197
9953.00,0.2196
9952.00,0.2196
9951.00,0.2196
9950.00,0.2197
9949.00,0.2199
9948.00,0.2199
9947.00,0.2199
9946.00,0.2198
9945.00,0.2197
9944.00,0.2195
9943.00,0.2194
9942.00,0.2195
9941.00,0.2196
9940.00,0.2196
9939.00,0.2197
9938.00,0.2196
9937.00,0.2196
9936.00,0.2197
9935.00,0.2199
9934.00,0.2202
9933.00,0.2205
9932.00,0.2206
9931.00,0.2206
9930.00,0.2206
9929.00,0.2204
9928.00,0.2204
9927.00,0.2204
9926.00,0.2205
9925.00,0.2206
9924.00,0.2205
9923.00,0.2204
9922.00,0.2202
9921.00,0.2201
9920.00,0.2201
9919.00,0.2202
9918.00,0.2203
9917.00,0.2203
9916.00,0.2202
9915.00,0.2201
9914.00,0.2201
9913.00,0.2201
9912.00,0.2202
9911.00,0.2203
9910.00,0.2202
9909.00,0.2200
9908.00,0.2199
9907.00,0.2199
9906.00,0.2200
9905.00,0.2201
9904.00,0.2201
9903.00,0.2199
9902.00,0.2196
9901.00,0.2194
9900.00,0.2194
9899.00,0.2195
9898.00,0.2196
9897.00,0.2197
9896.00,0.2196
9895.00,0.2195
9894.00,0.2195
9893.00,0.2195
9892.00,0.2196
9891.00,0.2196
9890.00,0.2196
9889.00,0.2197
9888.00,0.2198
9887.00,0.2199
9886.00,0.2200
9885.00,0.2200
9884.00,0.2199
9883.00,0.2198
9882.00,0.2198
9881.00,0.2199
9880.00,0.2200
9879.00,0.2199
9878.00,0.2198
9877.00,0.2196
9876.00,0.2196
9875.00,0.2197
9874.00,0.2198
9873.00,0.2198
9872.00,0.2197
9871.00,0.2195
9870.00,0.2195
9869.00,0.2196
9868.00,0.2197
9867.00,0.2198
9866.00,0.2197
9865.00,0.2196
9864.00,0.2195
9863.00,0.2195
9862.00,0.2196
9861.00,0.2197
9860.00,0.2197
9859.00,0.2196
9858.00,0.2196
9857.00,0.2197
9856.00,0.2197
9855.00,0.2197
9854.00,0.2195
9853.00,0.2193
9852.00,0.2192
9851.00,0.2192
9850.00,0.2193
9849.00,0.2194
9848.00,0.2194
9847.00,0.2194
9846.00,0.2193
9845.00,0.2193
9844.00,0.2195
9843.00,0.2196
9842.00,0.2197
9841.00,0.2196
9840.00,0.2195
9839.00,0.2194
9838.00,0.2193
9837.00,0.2193
9836.00,0.2194
9835.00,0.2194
9834.00,0.2194
9833.00,0.2194
9832.00,0.2194
9831.00,0.2195
9830.00,0.2196
9829.00,0.2197
9828.00,0.2197
9827.00,0.2197
9826.00,0.2196
9825.00,0.2196
9824.00,0.2195
9823.00,0.2195
9822.00,0.2195
9821.00,0.2195
9820.00,0.2196
9819.00,0.2195
9818.00,0.2195
9817.00,0.2195
9816.00,0.2196
9815.00,0.2197
9814.00,0.2198
9813.00,0.2199
9812.00,0.2199
9811.00,0.2198
9810.00,0.2196
9809.00,0.2195
9808.00,0.2194
9807.00,0.2194
9806.00,0.2194
9805.00,0.2194
9804.00,0.2193
9803.00,0.2192
9802.00,0.2192
9801.00,0.2192
9800.00,0.2193
9799.00,0.2193
9798.00,0.2194
9797.00,0.2193
9796.00,0.2192
9795.00,0.2191
9794.00,0.2190
9793.00,0.2190
9792.00,0.2190
9791.00,0.2189
9790.00,0.2188
9789.00,0.2188
9788.00,0.2188
9787.00,0.2190
9786.00,0.2191
9785.00,0.2191
9784.00,0.2189
9783.00,0.2188
9782.00,0.2187
9781.00,0.2187
9780.00,0.2190
9779.00,0.2193
9778.00,0.2194
9777.00,0.2194
9776.00,0.2193
9775.00,0.2192
9774.00,0.2192
9773.00,0.2194
9772.00,0.2195
9771.00,0.2196
9770.00,0.2194
9769.00,0.2191
9768.00,0.2189
9767.00,0.2187
9766.00,0.2188
9765.00,0.2189
9764.00,0.2190
9763.00,0.2190
9762.00,0.2189
9761.00,0.2187
9760.00,0.2186
9759.00,0.2186
9758.00,0.2185
9757.00,0.2185
9756.00,0.2184
9755.00,0.2183
9754.00,0.2183
9753.00,0.2184
9752.00,0.2186
9751.00,0.2186
9750.00,0.2186
9749.00,0.2186
9748.00,0.2187
9747.00,0.2188
9746.00,0.2189
9745.00,0.2190
9744.00,0.2189
9743.00,0.2188
9742.00,0.2187
9741.00,0.2187
9740.00,0.2188
9739.00,0.2189
9738.00,0.2189
9737.00,0.2188
9736.00,0.2186
9735.00,0.2184
9734.00,0.2183
9733.00,0.2183
9732.00,0.2183
9731.00,0.2183
9730.00,0.2182
9729.00,0.2180
9728.00,0.2180
9727.00,0.2182
9726.00,0.2184
9725.00,0.2187
9724.00,0.2187
9723.00,0.2186
9722.00,0.2185
9721.00,0.2184
9720.00,0.2184
9719.00,0.2185
9718.00,0.2185
9717.00,0.2184
9716.00,0.2183
9715.00,0.2181
9714.00,0.2181
9713.00,0.2182
9712.00,0.2183
9711.00,0.2184
9710.00,0.2185
9709.00,0.2184
9708.00,0.2183
9707.00,0.2182
9706.00,0.2181
9705.00,0.2180
9704.00,0.2180
9703.00,0.2179
9702.00,0.2179
9701.00,0.2179
9700.00,0.2179
9699.00,0.2178
9698.00,0.2178
9697.00,0.2178
9696.00,0.2178
9695.00,0.2178
9694.00,0.2178
9693.00,0.2178
9692.00,0.2178
9691.00,0.2178
9690.00,0.2178
9689.00,0.2179
9688.00,0.2181
9687.00,0.2182
9686.00,0.2184
9685.00,0.2184
9684.00,0.2185
9683.00,0.2185
9682.00,0.2184
9681.00,0.2183
9680.00,0.2181
9679.00,0.2179
9678.00,0.2177
9677.00,0.2176
9676.00,0.2175
9675.00,0.2175
9674.00,0.2175
9673.00,0.2176
9672.00,0.2176
9671.00,0.2176
9670.00,0.2177
9669.00,0.2177
9668.00,0.2178
9667.00,0.2178
9666.00,0.2177
9665.00,0.2177
9664.00,0.2176
9663.00,0.2176
9662.00,0.2176
9661.00,0.2175
9660.00,0.2174
9659.00,0.2173
9658.00,0.2172
9657.00,0.2173
9656.00,0.2174
9655.00,0.2175
9654.00,0.2175
9653.00,0.2174
9652.00,0.2172
9651.00,0.2172
9650.00,0.2172
9649.00,0.2174
9648.00,0.2175
9647.00,0.2175
9646.00,0.2174
9645.00,0.2173
9644.00,0.2171
9643.00,0.2170
9642.00,0.2170
9641.00,0.2170
9640.00,0.2172
9639.00,0.2174
9638.00,0.2175
9637.00,0.2174
9636.00,0.2171
9635.00,0.2169
9634.00,0.2168
9633.00,0.2170
9632.00,0.2172
9631.00,0.2174
9630.00,0.2174
9629.00,0.2172
9628.00,0.2170
9627.00,0.2169
9626.00,0.2170
9625.00,0.2173
9624.00,0.2175
9623.00,0.2174
9622.00,0.2173
9621.00,0.2171
9620.00,0.2170
9619.00,0.2171
9618.00,0.2172
9617.00,0.2173
9616.00,0.2172
9615.00,0.2171
9614.00,0.2170
9613.00,0.2170
9612.00,0.2170
9611.00,0.2171
9610.00,0.2170
9609.00,0.2169
9608.00,0.2168
9607.00,0.2167
9606.00,0.2168
9605.00,0.2169
9604.00,0.2171
9603.00,0.2171
9602.00,0.2171
9601.00,0.2170
9600.00,0.2168
9599.00,0.2167
9598.00,0.2167
9597.00,0.2167
9596.00,0.2167
9595.00,0.2167
9594.00,0.2167
9593.00,0.2166
9592.00,0.2167
9591.00,0.2167
9590.00,0.2169
9589.00,0.2170
9588.00,0.2170
9587.00,0.2169
9586.00,0.2168
9585.00,0.2167
9584.00,0.2167
9583.00,0.2166
9582.00,0.2166
9581.00,0.2166
9580.00,0.2166
9579.00,0.2166
9578.00,0.2166
9577.00,0.2165
9576.00,0.2164
9575.00,0.2164
9574.00,0.2163
9573.00,0.2163
9572.00,0.2163
9571.00,0.2162
9570.00,0.2161
9569.00,0.2160
9568.00,0.2160
9567.00,0.2161
9566.00,0.2161
9565.00,0.2161
9564.00,0.2161
9563.00,0.2161
9562.00,0.2162
9561.00,0.2163
9560.00,0.2164
9559.00,0.2164
9558.00,0.2164
9557.00,0.2163
9556.00,0.2163
9555.00,0.2165
9554.00,0.2167
9553.00,0.2168
9552.00,0.2168
9551.00,0.2167
9550.00,0.2166
9549.00,0.2166
9548.00,0.2166
9547.00,0.2167
9546.00,0.2168
9545.00,0.2167
9544.00,0.2166
9543.00,0.2164
9542.00,0.2164
9541.00,0.2165
9540.00,0.2165
9539.00,0.2165
9538.00,0.2164
9537.00,0.2163
9536.00,0.2163
9535.00,0.2163
9534.00,0.2163
9533.00,0.2162
9532.00,0.2161
9531.00,0.2159
9530.00,0.2158
9529.00,0.2158
9528.00,0.2158
9527.00,0.2158
9526.00,0.2158
9525.00,0.2158
9524.00,0.2158
9523.00,0.2158
9522.00,0.2158
9521.00,0.2158
9520.00,0.2158
9519.00,0.2160
9518.00,0.2161
9517.00,0.2162
9516.00,0.2162
9515.00,0.2161
9514.00,0.2160
9513.00,0.2160
9512.00,0.2160
9511.00,0.2160
9510.00,0.2160
9509.00,0.2159
9508.00,0.2158
9507.00,0.2157
9506.00,0.2157
9505.00,0.2157
9504.00,0.2157
9503.00,0.2157
9502.00,0.2156
9501.00,0.2156
9500.00,0.2157
9499.00,0.2158
9498.00,0.2159
9497.00,0.2159
9496.00,0.2159
9495.00,0.2159
9494.00,0.2159
9493.00,0.2160
9492.00,0.2160
9491.00,0.2159
9490.00,0.2157
9489.00,0.2155
9488.00,0.2154
9487.00,0.2153
9486.00,0.2153
9485.00,0.2154
9484.00,0.2154
9483.00,0.2154
9482.00,0.2153
9481.00,0.2152
9480.00,0.2151
9479.00,0.2150
9478.00,0.2151
9477.00,0.2152
9476.00,0.2153
9475.00,0.2153
9474.00,0.2152
9473.00,0.2151
9472.00,0.2151
9471.00,0.2152
9470.00,0.2153
9469.00,0.2154
9468.00,0.2155
9467.00,0.2155
9466.00,0.2155
9465.00,0.2156
9464.00,0.2157
9463.00,0.2157
9462.00,0.2157
9461.00,0.2157
9460.00,0.2157
9459.00,0.2156
9458.00,0.2156
9457.00,0.2154
9456.00,0.2153
9455.00,0.2151
9454.00,0.2150
9453.00,0.2149
9452.00,0.2150
9451.00,0.2150
9450.00,0.2150
9449.00,0.2150
9448.00,0.2149
9447.00,0.2148
9446.00,0.2148
9445.00,0.2149
9444.00,0.2149
9443.00,0.2150
9442.00,0.2149
9441.00,0.2149
9440.00,0.2149
9439.00,0.2149
9438.00,0.2149
9437.00,0.2150
9436.00,0.2150
9435.00,0.2150
9434.00,0.2149
9433.00,0.2148
9432.00,0.2146
9431.00,0.2146
9430.00,0.2146
9429.00,0.2147
9428.00,0.2148
9427.00,0.2148
9426.00,0.2149
9425.00,0.2149
9424.00,0.2149
9423.00,0.2149
9422.00,0.2149
9421.00,0.2149
9420.00,0.2150
9419.00,0.2151
9418.00,0.2151
9417.00,0.2151
9416.00,0.2150
9415.00,0.2149
9414.00,0.2149
9413.00,0.2149
9412.00,0.2149
9411.00,0.2150
9410.00,0.2150
9409.00,0.2149
9408.00,0.2148
9407.00,0.2146
9406.00,0.2145
9405.00,0.2144
9404.00,0.2144
9403.00,0.2143
9402.00,0.2143
9401.00,0.2142
9400.00,0.2142
9399.00,0.2141
9398.00,0.2141
9397.00,0.2140
9396.00,0.2140
9395.00,0.2141
9394.00,0.2142
9393.00,0.2143
9392.00,0.2143
9391.00,0.2143
9390.00,0.2142
9389.00,0.2141
9388.00,0.2140
9387.00,0.2141
9386.00,0.2142
9385.00,0.2143
9384.00,0.2143
9383.00,0.2142
9382.00,0.2142
9381.00,0.2142
9380.00,0.2144
9379.00,0.2145
9378.00,0.2145
9377.00,0.2144
9376.00,0.2143
9375.00,0.2142
9374.00,0.2141
9373.00,0.2141
9372.00,0.2141
9371.00,0.2140
9370.00,0.2140
9369.00,0.2141
9368.00,0.2143
9367.00,0.2144
9366.00,0.2145
9365.00,0.2145
9364.00,0.2145
9363.00,0.2145
9362.00,0.2146
9361.00,0.2147
9360.00,0.2147
9359.00,0.2145
9358.00,0.2144
9357.00,0.2143
9356.00,0.2143
9355.00,0.2144
9354.00,0.2145
9353.00,0.2145
9352.00,0.2144
9351.00,0.2143
9350.00,0.2142
9349.00,0.2141
9348.00,0.2141
9347.00,0.2142
9346.00,0.2142
9345.00,0.2142
9344.00,0.2142
9343.00,0.2142
9342.00,0.2142
9341.00,0.2143
9340.00,0.2145
9339.00,0.2145
9338.00,0.2145
9337.00,0.2144
9336.00,0.2142
9335.00,0.2140
9334.00,0.2139
9333.00,0.2139
9332.00,0.2139
9331.00,0.2138
9330.00,0.2137
9329.00,0.2136
9328.00,0.2135
9327.00,0.2135
9326.00,0.2136
9325.00,0.2137
9324.00,0.2137
9323.00,0.2137
9322.00,0.2136
9321.00,0.2136
9320.00,0.2136
9319.00,0.2136
9318.00,0.2137
9317.00,0.2137
9316.00,0.2137
9315.00,0.2137
9314.00,0.2137
9313.00,0.2137
9312.00,0.2138
9311.00,0.2138
9310.00,0.2138
9309.00,0.2138
9308.00,0.2138
9307.00,0.2138
9306.00,0.2138
9305.00,0.2137
9304.00,0.2136
9303.00,0.2135
9302.00,0.2135
9301.00,0.2136
9300.00,0.2135
9299.00,0.2134
9298.00,0.2133
9297.00,0.2132
9296.00,0.2132
9295.00,0.2133
9294.00,0.2134
9293.00,0.2135
9292.00,0.2134
9291.00,0.2133
9290.00,0.2133
9289.00,0.2134
9288.00,0.2135
9287.00,0.2137
9286.00,0.2137
9285.00,0.2137
9284.00,0.2136
9283.00,0.2135
9282.00,0.2135
9281.00,0.2136
9280.00,0.2137
9279.00,0.2136
9278.00,0.2135
9277.00,0.2134
9276.00,0.2134
9275.00,0.2134
9274.00,0.2134
9273.00,0.2135
9272.00,0.2134
9271.00,0.2134
9270.00,0.2135
9269.00,0.2136
9268.00,0.2137
9267.00,0.2137
9266.00,0.2137
9265.00,0.2137
9264.00,0.2137
9263.00,0.2136
9262.00,0.2136
9261.00,0.2135
9260.00,0.2134
9259.00,0.2132
9258.00,0.2131
9257.00,0.2130
9256.00,0.2131
9255.00,0.2132
9254.00,0.2134
9253.00,0.2136
9252.00,0.2136
9251.00,0.2136
9250.00,0.2135
9249.00,0.2134
9248.00,0.2134
9247.00,0.2134
9246.00,0.2134
9245.00,0.2133
9244.00,0.2132
9243.00,0.2132
9242.00,0.2132
9241.00,0.2133
9240.00,0.2133
9239.00,0.2134
9238.00,0.2134
9237.00,0.2134
9236.00,0.2133
9235.00,0.2131
9234.00,0.2130
9233.00,0.2128
9232.00,0.2127
9231.00,0.2127
9230.00,0.2127
9229.00,0.2128
9228.00,0.2130
9227.00,0.2131
9226.00,0.2131
9225.00,0.2131
9224.00,0.2130
9223.00,0.2130
9222.00,0.2130
9221.00,0.2129
9220.00,0.2128
9219.00,0.2126
9218.00,0.2126
9217.00,0.2126
9216.00,0.2126
9215.00,0.2127
9214.00,0.2128
9213.00,0.2129
9212.00,0.2129
9211.00,0.2130
9210.00,0.2130
9209.00,0.2130
9208.00,0.2130
9207.00,0.2129
9206.00,0.2129
9205.00,0.2128
9204.00,0.2127
9203.00,0.2126
9202.00,0.2126
9201.00,0.2127
9200.00,0.2129
9199.00,0.2130
9198.00,0.2130
9197.00,0.2130
9196.00,0.2129
9195.00,0.2128
9194.00,0.2127
9193.00,0.2127
9192.00,0.2127
9191.00,0.2126
9190.00,0.2126
9189.00,0.2125
9188.00,0.2124
9187.00,0.2124
9186.00,0.2124
9185.00,0.2125
9184.00,0.2126
9183.00,0.2127
9182.00,0.2127
9181.00,0.2127
9180.00,0.2127
9179.00,0.2127
9178.00,0.2127
9177.00,0.2128
9176.00,0.2128
9175.00,0.2129
9174.00,0.2129
9173.00,0.2129
9172.00,0.2128
9171.00,0.2127
9170.00,0.2126
9169.00,0.2126
9168.00,0.2126
9167.00,0.2126
9166.00,0.2126
9165.00,0.2125
9164.00,0.2125
9163.00,0.2125
9162.00,0.2125
9161.00,0.2124
9160.00,0.2123
9159.00,0.2122
9158.00,0.2122
9157.00,0.2123
9156.00,0.2123
9155.00,0.2123
9154.00,0.2122
9153.00,0.2121
9152.00,0.2120
9151.00,0.2121
9150.00,0.2122
9149.00,0.2123
9148.00,0.2124
9147.00,0.2124
9146.00,0.2123
9145.00,0.2124
9144.00,0.2124
9143.00,0.2125
9142.00,0.2126
9141.00,0.2127
9140.00,0.2126
9139.00,0.2126
9138.00,0.2125
9137.00,0.2124
9136.00,0.2123
9135.00,0.2122
9134.00,0.2123
9133.00,0.2123
9132.00,0.2123
9131.00,0.2123
9130.00,0.2122
9129.00,0.2122
9128.00,0.2122
9127.00,0.2122
9126.00,0.2123
9125.00,0.2123
9124.00,0.2122
9123.00,0.2121
9122.00,0.2120
9121.00,0.2119
9120.00,0.2119
9119.00,0.2118
9118.00,0.2119
9117.00,0.2119
9116.00,0.2119
9115.00,0.2118
9114.00,0.2118
9113.00,0.2119
9112.00,0.2119
9111.00,0.2120
9110.00,0.2120
9109.00,0.2120
9108.00,0.2120
9107.00,0.2120
9106.00,0.2119
9105.00,0.2119
9104.00,0.2118
9103.00,0.2118
9102.00,0.2119
9101.00,0.2119
9100.00,0.2120
9099.00,0.2120
9098.00,0.2120
9097.00,0.2120
9096.00,0.2121
9095.00,0.2122
9094.00,0.2123
9093.00,0.2123
9092.00,0.2123
9091.00,0.2122
9090.00,0.2121
9089.00,0.2120
9088.00,0.2119
9087.00,0.2118
9086.00,0.2117
9085.00,0.2117
9084.00,0.2116
9083.00,0.2116
9082.00,0.2116
9081.00,0.2117
9080.00,0.2118
9079.00,0.2119
9078.00,0.2120
9077.00,0.2120
9076.00,0.2120
9075.00,0.2119
9074.00,0.2119
9073.00,0.2118
9072.00,0.2118
9071.00,0.2118
9070.00,0.2118
9069.00,0.2118
9068.00,0.2117
9067.00,0.2117
9066.00,0.2118
9065.00,0.2118
9064.00,0.2118
9063.00,0.2118
9062.00,0.2118
9061.00,0.2118
9060.00,0.2119
9059.00,0.2119
9058.00,0.2119
9057.00,0.2119
9056.00,0.2120
9055.00,0.2121
9054.00,0.2122
9053.00,0.2122
9052.00,0.2121
9051.00,0.2121
9050.00,0.2121
9049.00,0.2122
9048.00,0.2122
9047.00,0.2121
9046.00,0.2120
9045.00,0.2119
9044.00,0.2119
9043.00,0.2119
9042.00,0.2119
9041.00,0.2118
9040.00,0.2117
9039.00,0.2116
9038.00,0.2115
9037.00,0.2116
9036.00,0.2116
9035.00,0.2115
9034.00,0.2114
9033.00,0.2114
9032.00,0.2114
9031.00,0.2115
9030.00,0.2115
9029.00,0.2115
9028.00,0.2115
9027.00,0.2114
9026.00,0.2115
9025.00,0.2115
9024.00,0.2116
9023.00,0.2116
9022.00,0.2116
9021.00,0.2115
9020.00,0.2114
9019.00,0.2114
9018.00,0.2113
9017.00,0.2113
9016.00,0.2113
9015.00,0.2113
9014.00,0.2113
9013.00,0.2113
9012.00,0.2112
9011.00,0.2111
9010.00,0.2111
9009.00,0.2110
9008.00,0.2110
9007.00,0.2110
9006.00,0.2110
9005.00,0.2110
9004.00,0.2111
9003.00,0.2112
9002.00,0.2112
9001.00,0.2113
9000.00,0.2113
8999.00,0.2113
8998.00,0.2114
8997.00,0.2113
8996.00,0.2113
8995.00,0.2112
8994.00,0.2111
8993.00,0.2112
8992.00,0.2112
8991.00,0.2114
8990.00,0.2115
8989.00,0.2116
8988.00,0.2116
8987.00,0.2116
8986.00,0.2116
8985.00,0.2116
8984.00,0.2116
8983.00,0.2115
8982.00,0.2113
8981.00,0.2111
8980.00,0.2110
8979.00,0.2110
8978.00,0.2110
8977.00,0.2110
8976.00,0.2110
8975.00,0.2110
8974.00,0.2111
8973.00,0.2112
8972.00,0.2113
8971.00,0.2113
8970.00,0.2113
8969.00,0.2112
8968.00,0.2111
8967.00,0.2111
8966.00,0.2111
8965.00,0.2110
8964.00,0.2109
8963.00,0.2109
8962.00,0.2110
8961.00,0.2111
8960.00,0.2112
8959.00,0.2113
8958.00,0.2113
8957.00,0.2114
8956.00,0.2115
8955.00,0.2116
8954.00,0.2116
8953.00,0.2116
8952.00,0.2114
8951.00,0.2112
8950.00,0.2111
8949.00,0.2111
8948.00,0.2110
8947.00,0.2110
8946.00,0.2109
8945.00,0.2109
8944.00,0.2110
8943.00,0.2112
8942.00,0.2113
8941.00,0.2115
8940.00,0.2115
8939.00,0.2115
8938.00,0.2115
8937.00,0.2115
8936.00,0.2115
8935.00,0.2115
8934.00,0.2114
8933.00,0.2113
8932.00,0.2113
8931.00,0.2113
8930.00,0.2114
8929.00,0.2115
8928.00,0.2114
8927.00,0.2113
8926.00,0.2112
8925.00,0.2112
8924.00,0.2113
8923.00,0.2114
8922.00,0.2114
8921.00,0.2114
8920.00,0.2114
8919.00,0.2114
8918.00,0.2114
8917.00,0.2114
8916.00,0.2113
8915.00,0.2113
8914.00,0.2113
8913.00,0.2113
8912.00,0.2114
8911.00,0.2114
8910.00,0.2114
8909.00,0.2114
8908.00,0.2114
8907.00,0.2115
8906.00,0.2116
8905.00,0.2117
8904.00,0.2116
8903.00,0.2115
8902.00,0.2114
8901.00,0.2113
8900.00,0.2112
8899.00,0.2112
8898.00,0.2112
8897.00,0.2112
8896.00,0.2111
8895.00,0.2111
8894.00,0.2111
8893.00,0.2112
8892.00,0.2114
8891.00,0.2116
8890.00,0.2117
8889.00,0.2117
8888.00,0.2117
8887.00,0.2117
8886.00,0.2117
8885.00,0.2117
8884.00,0.2117
8883.00,0.2116
8882.00,0.2115
8881.00,0.2114
8880.00,0.2113
8879.00,0.2113
8878.00,0.2112
8877.00,0.2112
8876.00,0.2113
8875.00,0.2113
8874.00,0.2113
8873.00,0.2114
8872.00,0.2114
8871.00,0.2115
8870.00,0.2116
8869.00,0.2117
8868.00,0.2117
8867.00,0.2118
8866.00,0.2118
8865.00,0.2118
8864.00,0.2117
8863.00,0.2116
8862.00,0.2115
8861.00,0.2115
8860.00,0.2115
8859.00,0.2116
8858.00,0.2116
8857.00,0.2117
8856.00,0.2118
8855.00,0.2119
8854.00,0.2120
8853.00,0.2122
8852.00,0.2123
8851.00,0.2124
8850.00,0.2124
8849.00,0.2122
8848.00,0.2121
8847.00,0.2120
8846.00,0.2119
8845.00,0.2119
8844.00,0.2118
8843.00,0.2117
8842.00,0.2117
8841.00,0.2118
8840.00,0.2119
8839.00,0.2120
8838.00,0.2122
8837.00,0.2123
8836.00,0.2124
8835.00,0.2124
8834.00,0.2124
8833.00,0.2124
8832.00,0.2124
8831.00,0.2124
8830.00,0.2124
8829.00,0.2124
8828.00,0.2124
8827.00,0.2124
8826.00,0.2124
8825.00,0.2124
8824.00,0.2124
8823.00,0.2124
8822.00,0.2125
8821.00,0.2126
8820.00,0.2128
8819.00,0.2130
8818.00,0.2132
8817.00,0.2133
8816.00,0.2134
8815.00,0.2135
8814.00,0.2135
8813.00,0.2134
8812.00,0.2133
8811.00,0.2131
8810.00,0.2130
8809.00,0.2129
8808.00,0.2130
8807.00,0.2131
8806.00,0.2132
8805.00,0.2133
8804.00,0.2134
8803.00,0.2134
8802.00,0.2135
8801.00,0.2135
8800.00,0.2136
8799.00,0.2135
8798.00,0.2133
8797.00,0.2132
8796.00,0.2132
8795.00,0.2133
8794.00,0.2135
8793.00,0.2137
8792.00,0.2137
8791.00,0.2137
8790.00,0.2138
8789.00,0.2139
8788.00,0.2140
8787.00,0.2140
8786.00,0.2140
8785.00,0.2139
8784.00,0.2138
8783.00,0.2139
8782.00,0.2139
8781.00,0.2139
8780.00,0.2139
8779.00,0.2139
8778.00,0.2140
8777.00,0.2141
8776.00,0.2143
8775.00,0.2144
8774.00,0.2144
8773.00,0.2145
8772.00,0.2147
8771.00,0.2148
8770.00,0.2149
8769.00,0.2150
8768.00,0.2150
8767.00,0.2150
8766.00,0.2151
8765.00,0.2152
8764.00,0.2151
8763.00,0.2150
8762.00,0.2149
8761.00,0.2148
8760.00,0.2148
8759.00,0.2149
8758.00,0.2149
8757.00,0.2150
8756.00,0.2151
8755.00,0.2152
8754.00,0.2153
8753.00,0.2153
8752.00,0.2153
8751.00,0.2153
8750.00,0.2155
8749.00,0.2156
8748.00,0.2157
8747.00,0.2156
8746.00,0.2156
8745.00,0.2157
8744.00,0.2159
8743.00,0.2161
8742.00,0.2162
8741.00,0.2161
8740.00,0.2160
8739.00,0.2160
8738.00,0.2160
8737.00,0.2161
8736.00,0.2161
8735.00,0.2161
8734.00,0.2160
8733.00,0.2160
8732.00,0.2160
8731.00,0.2161
8730.00,0.2162
8729.00,0.2164
8728.00,0.2165
8727.00,0.2166
8726.00,0.2167
8725.00,0.2168
8724.00,0.2169
8723.00,0.2170
8722.00,0.2172
8721.00,0.2173
8720.00,0.2173
8719.00,0.2173
8718.00,0.2172
8717.00,0.2173
8716.00,0.2173
8715.00,0.2174
8714.00,0.2175
8713.00,0.2175
8712.00,0.2174
8711.00,0.2173
8710.00,0.2174
8709.00,0.2175
8708.00,0.2177
8707.00,0.2178
8706.00,0.2179
8705.00,0.2180
8704.00,0.2182
8703.00,0.2184
8702.00,0.2186
8701.00,0.2187
8700.00,0.2187
8699.00,0.2186
8698.00,0.2185
8697.00,0.2186
8696.00,0.2186
8695.00,0.2185
8694.00,0.2184
8693.00,0.2183
8692.00,0.2184
8691.00,0.2185
8690.00,0.2187
8689.00,0.2189
8688.00,0.2190
8687.00,0.2190
8686.00,0.2190
8685.00,0.2192
8684.00,0.2194
8683.00,0.2196
8682.00,0.2197
8681.00,0.2198
8680.00,0.2199
8679.00,0.2199
8678.00,0.2200
8677.00,0.2201
8676.00,0.2201
8675.00,0.2201
8674.00,0.2202
8673.00,0.2202
8672.00,0.2203
8671.00,0.2203
8670.00,0.2204
8669.00,0.2205
8668.00,0.2206
8667.00,0.2207
8666.00,0.2208
8665.00,0.2208
8664.00,0.2209
8663.00,0.2209
8662.00,0.2210
8661.00,0.2212
8660.00,0.2213
8659.00,0.2214
8658.00,0.2216
8657.00,0.2217
8656.00,0.2218
8655.00,0.2219
8654.00,0.2219
8653.00,0.2220
8652.00,0.2220
8651.00,0.2221
8650.00,0.2221
8649.00,0.2222
8648.00,0.2222
8647.00,0.2223
8646.00,0.2223
8645.00,0.2224
8644.00,0.2225
8643.00,0.2226
8642.00,0.2227
8641.00,0.2228
8640.00,0.2229
8639.00,0.2230
8638.00,0.2232
8637.00,0.2233
8636.00,0.2234
8635.00,0.2236
8634.00,0.2237
8633.00,0.2238
8632.00,0.2239
8631.00,0.2239
8630.00,0.2240
8629.00,0.2241
8628.00,0.2242
8627.00,0.2242
8626.00,0.2243
8625.00,0.2244
8624.00,0.2244
8623.00,0.2245
8622.00,0.2246
8621.00,0.2246
8620.00,0.2247
8619.00,0.2247
8618.00,0.2248
8617.00,0.2248
8616.00,0.2248
8615.00,0.2248
8614.00,0.2248
8613.00,0.2249
8612.00,0.2251
8611.00,0.2252
8610.00,0.2253
8609.00,0.2254
8608.00,0.2255
8607.00,0.2256
8606.00,0.2258
8605.00,0.2259
8604.00,0.2259
8603.00,0.2259
8602.00,0.2259
8601.00,0.2259
8600.00,0.2260
8599.00,0.2261
8598.00,0.2262
8597.00,0.2264
8596.00,0.2265
8595.00,0.2265
8594.00,0.2266
8593.00,0.2266
8592.00,0.2266
8591.00,0.2266
8590.00,0.2266
8589.00,0.2266
8588.00,0.2266
8587.00,0.2267
8586.00,0.2268
8585.00,0.2269
8584.00,0.2271
8583.00,0.2273
8582.00,0.2274
8581.00,0.2275
8580.00,0.2275
8579.00,0.2275
8578.00,0.2275
8577.00,0.2276
8576.00,0.2276
8575.00,0.2277
8574.00,0.2276
8573.00,0.2276
8572.00,0.2276
8571.00,0.2277
8570.00,0.2278
8569.00,0.2279
8568.00,0.2280
8567.00,0.2280
8566.00,0.2281
8565.00,0.2282
8564.00,0.2283
8563.00,0.2285
8562.00,0.2286
8561.00,0.2288
8560.00,0.2289
8559.00,0.2290
8558.00,0.2290
8557.00,0.2290
8556.00,0.2291
8555.00,0.2292
8554.00,0.2292
8553.00,0.2292
8552.00,0.2292
8551.00,0.2291
8550.00,0.2291
8549.00,0.2292
8548.00,0.2293
8547.00,0.2294
8546.00,0.2295
8545.00,0.2296
8544.00,0.2297
8543.00,0.2298
8542.00,0.2299
8541.00,0.2299
8540.00,0.2300
8539.00,0.2300
8538.00,0.2300
8537.00,0.2301
8536.00,0.2301
8535.00,0.2301
8534.00,0.2301
8533.00,0.2302
8532.00,0.2302
8531.00,0.2303
8530.00,0.2304
8529.00,0.2305
8528.00,0.2305
8527.00,0.2305
8526.00,0.2306
8525.00,0.2308
8524.00,0.2309
8523.00,0.2310
8522.00,0.2311
8521.00,0.2311
8520.00,0.2312
8519.00,0.2313
8518.00,0.2314
8517.00,0.2314
8516.00,0.2314
8515.00,0.2314
8514.00,0.2314
8513.00,0.2315
8512.00,0.2316
8511.00,0.2317
8510.00,0.2317
8509.00,0.2317
8508.00,0.2318
8507.00,0.2318
8506.00,0.2319
8505.00,0.2320
8504.00,0.2321
8503.00,0.2322
8502.00,0.2322
8501.00,0.2322
8500.00,0.2322
8499.00,0.2323
8498.00,0.2324
8497.00,0.2324
8496.00,0.2323
8495.00,0.2323
8494.00,0.2323
8493.00,0.2324
8492.00,0.2325
8491.00,0.2326
8490.00,0.2327
8489.00,0.2328
8488.00,0.2328
8487.00,0.2329
8486.00,0.2330
8485.00,0.2331
8484.00,0.2332
8483.00,0.2332
8482.00,0.2332
8481.00,0.2333
8480.00,0.2333
8479.00,0.2334
8478.00,0.2335
8477.00,0.2336
8476.00,0.2337
8475.00,0.2337
8474.00,0.2337
8473.00,0.2337
8472.00,0.2337
8471.00,0.2338
8470.00,0.2339
8469.00,0.2339
8468.00,0.2339
8467.00,0.2340
8466.00,0.2341
8465.00,0.2342
8464.00,0.2343
8463.00,0.2344
8462.00,0.2344
8461.00,0.2345
8460.00,0.2346
8459.00,0.2347
8458.00,0.2347
8457.00,0.2346
8456.00,0.2346
8455.00,0.2346
8454.00,0.2346
8453.00,0.2347
8452.00,0.2347
8451.00,0.2347
8450.00,0.2347
8449.00,0.2347
8448.00,0.2349
8447.00,0.2351
8446.00,0.2353
8445.00,0.2355
8444.00,0.2356
8443.00,0.2355
8442.00,0.2355
8441.00,0.2355
8440.00,0.2356
8439.00,0.2357
8438.00,0.2357
8437.00,0.2357
8436.00,0.2357
8435.00,0.2357
8434.00,0.2358
8433.00,0.2358
8432.00,0.2359
8431.00,0.2359
8430.00,0.2359
8429.00,0.2359
8428.00,0.2360
8427.00,0.2361
8426.00,0.2362
8425.00,0.2363
8424.00,0.2364
8423.00,0.2365
8422.00,0.2366
8421.00,0.2366
8420.00,0.2366
8419.00,0.2366
8418.00,0.2365
8417.00,0.2364
8416.00,0.2364
8415.00,0.2364
8414.00,0.2364
8413.00,0.2365
8412.00,0.2366
8411.00,0.2367
8410.00,0.2368
8409.00,0.2368
8408.00,0.2369
8407.00,0.2369
8406.00,0.2370
8405.00,0.2371
8404.00,0.2371
8403.00,0.2371
8402.00,0.2371
8401.00,0.2371
8400.00,0.2371
8399.00,0.2371
8398.00,0.2371
8397.00,0.2371
8396.00,0.2371
8395.00,0.2371
8394.00,0.2372
8393.00,0.2373
8392.00,0.2373
8391.00,0.2373
8390.00,0.2374
8389.00,0.2375
8388.00,0.2377
8387.00,0.2377
8386.00,0.2377
8385.00,0.2377
8384.00,0.2376
8383.00,0.2377
8382.00,0.2377
8381.00,0.2377
8380.00,0.2376
8379.00,0.2375
8378.00,0.2374
8377.00,0.2375
8376.00,0.2375
8375.00,0.2376
8374.00,0.2376
8373.00,0.2376
8372.00,0.2376
8371.00,0.2377
8370.00,0.2378
8369.00,0.2378
8368.00,0.2377
8367.00,0.2377
8366.00,0.2378
8365.00,0.2378
8364.00,0.2379
8363.00,0.2380
8362.00,0.2380
8361.00,0.2381
8360.00,0.2381
8359.00,0.2381
8358.00,0.2381
8357.00,0.2381
8356.00,0.2382
8355.00,0.2382
8354.00,0.2382
8353.00,0.2382
8352.00,0.2382
8351.00,0.2383
8350.00,0.2384
8349.00,0.2384
8348.00,0.2384
8347.00,0.2385
8346.00,0.2385
8345.00,0.2385
8344.00,0.2385
8343.00,0.2385
8342.00,0.2384
8341.00,0.2384
8340.00,0.2384
8339.00,0.2383
8338.00,0.2381
8337.00,0.2381
8336.00,0.2380
8335.00,0.2380
8334.00,0.2381
8333.00,0.2381
8332.00,0.2381
8331.00,0.2382
8330.00,0.2383
8329.00,0.2383
8328.00,0.2384
8327.00,0.2384
8326.00,0.2384
8325.00,0.2383
8324.00,0.2382
8323.00,0.2382
8322.00,0.2382
8321.00,0.2382
8320.00,0.2382
8319.00,0.2383
8318.00,0.2384
8317.00,0.2384
8316.00,0.2385
8315.00,0.2385
8314.00,0.2385
8313.00,0.2385
8312.00,0.2385
8311.00,0.2385
8310.00,0.2384
8309.00,0.2384
8308.00,0.2384
8307.00,0.2384
8306.00,0.2384
8305.00,0.2383
8304.00,0.2383
8303.00,0.2383
8302.00,0.2383
8301.00,0.2382
8300.00,0.2382
8299.00,0.2382
8298.00,0.2383
8297.00,0.2384
8296.00,0.2384
8295.00,0.2385
8294.00,0.2384
8293.00,0.2383
8292.00,0.2383
8291.00,0.2382
8290.00,0.2382
8289.00,0.2382
8288.00,0.2381
8287.00,0.2380
8286.00,0.2380
8285.00,0.2380
8284.00,0.2381
8283.00,0.2381
8282.00,0.2381
8281.00,0.2381
8280.00,0.2381
8279.00,0.2381
8278.00,0.2381
8277.00,0.2381
8276.00,0.2381
8275.00,0.2381
8274.00,0.2381
8273.00,0.2381
8272.00,0.2380
8271.00,0.2380
8270.00,0.2380
8269.00,0.2380
8268.00,0.2380
8267.00,0.2380
8266.00,0.2380
8265.00,0.2380
8264.00,0.2380
8263.00,0.2379
8262.00,0.2378
8261.00,0.2378
8260.00,0.2377
8259.00,0.2377
8258.00,0.2376
8257.00,0.2376
8256.00,0.2377
8255.00,0.2377
8254.00,0.2377
8253.00,0.2377
8252.00,0.2377
8251.00,0.2377
8250.00,0.2376
8249.00,0.2375
8248.00,0.2374
8247.00,0.2373
8246.00,0.2373
8245.00,0.2373
8244.00,0.2373
8243.00,0.2372
8242.00,0.2372
8241.00,0.2372
8240.00,0.2372
8239.00,0.2373
8238.00,0.2373
8237.00,0.2372
8236.00,0.2373
8235.00,0.2374
8234.00,0.2374
8233.00,0.2374
8232.00,0.2374
8231.00,0.2373
8230.00,0.2372
8229.00,0.2371
8228.00,0.2371
8227.00,0.2370
8226.00,0.2369
8225.00,0.2369
8224.00,0.2368
8223.00,0.2368
8222.00,0.2369
8221.00,0.2369
8220.00,0.2369
8219.00,0.2369
8218.00,0.2368
8217.00,0.2368
8216.00,0.2367
8215.00,0.2367
8214.00,0.2367
8213.00,0.2367
8212.00,0.2367
8211.00,0.2367
8210.00,0.2367
8209.00,0.2366
8208.00,0.2366
8207.00,0.2365
8206.00,0.2365
8205.00,0.2364
8204.00,0.2364
8203.00,0.2363
8202.00,0.2363
8201.00,0.2362
8200.00,0.2362
8199.00,0.2361
8198.00,0.2361
8197.00,0.2361
8196.00,0.2361
8195.00,0.2361
8194.00,0.2361
8193.00,0.2361
8192.00,0.2362
8191.00,0.2362
8190.00,0.2362
8189.00,0.2362
8188.00,0.2362
8187.00,0.2362
8186.00,0.2362
8185.00,0.2361
8184.00,0.2360
8183.00,0.2359
8182.00,0.2359
8181.00,0.2359
8180.00,0.2359
8179.00,0.2358
8178.00,0.2357
8177.00,0.2356
8176.00,0.2357
8175.00,0.2357
8174.00,0.2356
8173.00,0.2355
8172.00,0.2354
8171.00,0.2353
8170.00,0.2353
8169.00,0.2353
8168.00,0.2352
8167.00,0.2352
8166.00,0.2352
8165.00,0.2352
8164.00,0.2352
8163.00,0.2351
8162.00,0.2351
8161.00,0.2351
8160.00,0.2351
8159.00,0.2350
8158.00,0.2349
8157.00,0.2348
8156.00,0.2348
8155.00,0.2348
8154.00,0.2348
8153.00,0.2348
8152.00,0.2348
8151.00,0.2347
8150.00,0.2347
8149.00,0.2346
8148.00,0.2346
8147.00,0.2345
8146.00,0.2344
8145.00,0.2343
8144.00,0.2343
8143.00,0.2343
8142.00,0.2343
8141.00,0.2342
8140.00,0.2342
8139.00,0.2342
8138.00,0.2341
8137.00,0.2341
8136.00,0.2341
8135.00,0.2340
8134.00,0.2340
8133.00,0.2339
8132.00,0.2339
8131.00,0.2338
8130.00,0.2339
8129.00,0.2339
8128.00,0.2340
8127.00,0.2340
8126.00,0.2339
8125.00,0.2339
8124.00,0.2338
8123.00,0.2338
8122.00,0.2339
8121.00,0.2338
8120.00,0.2338
8119.00,0.2337
8118.00,0.2336
8117.00,0.2336
8116.00,0.2336
8115.00,0.2336
8114.00,0.2334
8113.00,0.2333
8112.00,0.2331
8111.00,0.2330
8110.00,0.2330
8109.00,0.2330
8108.00,0.2329
8107.00,0.2329
8106.00,0.2330
8105.00,0.2330
8104.00,0.2330
8103.00,0.2329
8102.00,0.2329
8101.00,0.2328
8100.00,0.2328
8099.00,0.2327
8098.00,0.2327
8097.00,0.2326
8096.00,0.2326
8095.00,0.2326
8094.00,0.2327
8093.00,0.2327
8092.00,0.2327
8091.00,0.2326
8090.00,0.2325
8089.00,0.2325
8088.00,0.2324
8087.00,0.2323
8086.00,0.2322
8085.00,0.2322
8084.00,0.2321
8083.00,0.2321
8082.00,0.2320
8081.00,0.2320
8080.00,0.2320
8079.00,0.2320
8078.00,0.2320
8077.00,0.2319
8076.00,0.2318
8075.00,0.2317
8074.00,0.2317
8073.00,0.2318
8072.00,0.2318
8071.00,0.2317
8070.00,0.2317
8069.00,0.2316
8068.00,0.2316
8067.00,0.2316
8066.00,0.2316
8065.00,0.2316
8064.00,0.2315
8063.00,0.2314
8062.00,0.2314
8061.00,0.2314
8060.00,0.2315
8059.00,0.2315
8058.00,0.2314
8057.00,0.2314
8056.00,0.2313
8055.00,0.2313
8054.00,0.2313
8053.00,0.2313
8052.00,0.2312
8051.00,0.2312
8050.00,0.2311
8049.00,0.2310
8048.00,0.2309
8047.00,0.2309
8046.00,0.2309
8045.00,0.2308
8044.00,0.2308
8043.00,0.2308
8042.00,0.2308
8041.00,0.2308
8040.00,0.2308
8039.00,0.2308
8038.00,0.2308
8037.00,0.2308
8036.00,0.2308
8035.00,0.2308
8034.00,0.2307
8033.00,0.2306
8032.00,0.2306
8031.00,0.2306
8030.00,0.2305
8029.00,0.2305
8028.00,0.2304
8027.00,0.2303
8026.00,0.2303
8025.00,0.2303
8024.00,0.2303
8023.00,0.2304
8022.00,0.2303
8021.00,0.2302
8020.00,0.2301
8019.00,0.2301
8018.00,0.2300
8017.00,0.2300
8016.00,0.2299
8015.00,0.2298
8014.00,0.2298
8013.00,0.2298
8012.00,0.2298
8011.00,0.2299
8010.00,0.2300
8009.00,0.2301
8008.00,0.2302
8007.00,0.2303
8006.00,0.2302
8005.00,0.2301
8004.00,0.2300
8003.00,0.2300
8002.00,0.2299
8001.00,0.2299
8000.00,0.2298
7999.00,0.2297
7998.00,0.2296
7997.00,0.2296
7996.00,0.2295
7995.00,0.2295
7994.00,0.2294
7993.00,0.2294
7992.00,0.2294
7991.00,0.2294
7990.00,0.2294
7989.00,0.2294
7988.00,0.2294
7987.00,0.2293
7986.00,0.2292
7985.00,0.2292
7984.00,0.2291
7983.00,0.2291
7982.00,0.2291
7981.00,0.2290
7980.00,0.2290
7979.00,0.2290
7978.00,0.2290
7977.00,0.2291
7976.00,0.2291
7975.00,0.2290
7974.00,0.2289
7973.00,0.2288
7972.00,0.2287
7971.00,0.2287
7970.00,0.2287
7969.00,0.2287
7968.00,0.2286
7967.00,0.2286
7966.00,0.2285
7965.00,0.2285
7964.00,0.2285
7963.00,0.2285
7962.00,0.2286
7961.00,0.2286
7960.00,0.2287
7959.00,0.2287
7958.00,0.2287
7957.00,0.2286
7956.00,0.2286
7955.00,0.2285
7954.00,0.2285
7953.00,0.2284
7952.00,0.2283
7951.00,0.2283
7950.00,0.2282
7949.00,0.2283
7948.00,0.2283
7947.00,0.2283
7946.00,0.2283
7945.00,0.2282
7944.00,0.2281
7943.00,0.2281
7942.00,0.2281
7941.00,0.2280
7940.00,0.2280
7939.00,0.2280
7938.00,0.2279
7937.00,0.2279
7936.00,0.2280
7935.00,0.2281
7934.00,0.2281
7933.00,0.2282
7932.00,0.2282
7931.00,0.2281
7930.00,0.2281
7929.00,0.2280
7928.00,0.2279
7927.00,0.2279
7926.00,0.2278
7925.00,0.2278
7924.00,0.2278
7923.00,0.2278
7922.00,0.2277
7921.00,0.2277
7920.00,0.2276
7919.00,0.2276
7918.00,0.2276
7917.00,0.2276
7916.00,0.2276
7915.00,0.2276
7914.00,0.2276
7913.00,0.2276
7912.00,0.2276
7911.00,0.2276
7910.00,0.2275
7909.00,0.2275
7908.00,0.2274
7907.00,0.2273
7906.00,0.2273
7905.00,0.2274
7904.00,0.2275
7903.00,0.2275
7902.00,0.2275
7901.00,0.2274
7900.00,0.2273
7899.00,0.2273
7898.00,0.2273
7897.00,0.2273
7896.00,0.2273
7895.00,0.2272
7894.00,0.2272
7893.00,0.2271
7892.00,0.2271
7891.00,0.2270
7890.00,0.2269
7889.00,0.2268
7888.00,0.2268
7887.00,0.2267
7886.00,0.2268
7885.00,0.2268
7884.00,0.2268
7883.00,0.2268
7882.00,0.2268
7881.00,0.2268
7880.00,0.2268
7879.00,0.2267
7878.00,0.2267
7877.00,0.2266
7876.00,0.2266
7875.00,0.2265
7874.00,0.2265
7873.00,0.2265
7872.00,0.2265
7871.00,0.2265
7870.00,0.2265
7869.00,0.2264
7868.00,0.2264
7867.00,0.2264
7866.00,0.2265
7865.00,0.2265
7864.00,0.2264
7863.00,0.2264
7862.00,0.2263
7861.00,0.2262
7860.00,0.2262
7859.00,0.2261
7858.00,0.2261
7857.00,0.2261
7856.00,0.2261
7855.00,0.2261
7854.00,0.2261
7853.00,0.2261
7852.00,0.2262
7851.00,0.2262
7850.00,0.2262
7849.00,0.2262
7848.00,0.2262
7847.00,0.2261
7846.00,0.2260
7845.00,0.2260
7844.00,0.2259
7843.00,0.2257
7842.00,0.2257
7841.00,0.2256
7840.00,0.2257
7839.00,0.2257
7838.00,0.2257
7837.00,0.2257
7836.00,0.2257
7835.00,0.2257
7834.00,0.2257
7833.00,0.2256
7832.00,0.2256
7831.00,0.2255
7830.00,0.2254
7829.00,0.2253
7828.00,0.2253
7827.00,0.2252
7826.00,0.2252
7825.00,0.2252
7824.00,0.2252
7823.00,0.2252
7822.00,0.2252
7821.00,0.2252
7820.00,0.2252
7819.00,0.2252
7818.00,0.2251
7817.00,0.2251
7816.00,0.2251
7815.00,0.2251
7814.00,0.2251
7813.00,0.2250
7812.00,0.2250
7811.00,0.2250
7810.00,0.2249
7809.00,0.2249
7808.00,0.2248
7807.00,0.2247
7806.00,0.2246
7805.00,0.2245
7804.00,0.2245
7803.00,0.2244
7802.00,0.2244
7801.00,0.2244
7800.00,0.2243
7799.00,0.2243
7798.00,0.2243
7797.00,0.2242
7796.00,0.2242
7795.00,0.2242
7794.00,0.2242
7793.00,0.2242
7792.00,0.2242
7791.00,0.2241
7790.00,0.2241
7789.00,0.2240
7788.00,0.2240
7787.00,0.2240
7786.00,0.2239
7785.00,0.2240
7784.00,0.2240
7783.00,0.2240
7782.00,0.2240
7781.00,0.2240
7780.00,0.2240
7779.00,0.2239
7778.00,0.2239
7777.00,0.2238
7776.00,0.2237
7775.00,0.2237
7774.00,0.2237
7773.00,0.2237
7772.00,0.2237
7771.00,0.2236
7770.00,0.2236
7769.00,0.2236
7768.00,0.2235
7767.00,0.2234
7766.00,0.2234
7765.00,0.2233
7764.00,0.2233
7763.00,0.2232
7762.00,0.2232
7761.00,0.2232
7760.00,0.2232
7759.00,0.2232
7758.00,0.2232
7757.00,0.2232
7756.00,0.2232
7755.00,0.2231
7754.00,0.2231
7753.00,0.2230
7752.00,0.2230
7751.00,0.2229
7750.00,0.2229
7749.00,0.2228
7748.00,0.2228
7747.00,0.2227
7746.00,0.2227
7745.00,0.2227
7744.00,0.2227
7743.00,0.2227
7742.00,0.2226
7741.00,0.2226
7740.00,0.2226
7739.00,0.2226
7738.00,0.2226
7737.00,0.2226
7736.00,0.2225
7735.00,0.2225
7734.00,0.2224
7733.00,0.2224
7732.00,0.2224
7731.00,0.2225
7730.00,0.2225
7729.00,0.2225
7728.00,0.2224
7727.00,0.2224
7726.00,0.2223
7725.00,0.2222
7724.00,0.2222
7723.00,0.2221
7722.00,0.2221
7721.00,0.2220
7720.00,0.2220
7719.00,0.2220
7718.00,0.2220
7717.00,0.2221
7716.00,0.2221
7715.00,0.2221
7714.00,0.2221
7713.00,0.2221
7712.00,0.2222
7711.00,0.2222
7710.00,0.2221
7709.00,0.2221
7708.00,0.2220
7707.00,0.2220
7706.00,0.2220
7705.00,0.2220
7704.00,0.2219
7703.00,0.2218
7702.00,0.2218
7701.00,0.2219
7700.00,0.2219
7699.00,0.2218
7698.00,0.2218
7697.00,0.2218
7696.00,0.2218
7695.00,0.2218
7694.00,0.2218
7693.00,0.2218
7692.00,0.2218
7691.00,0.2218
7690.00,0.2217
7689.00,0.2217
7688.00,0.2217
7687.00,0.2216
7686.00,0.2216
7685.00,0.2216
7684.00,0.2215
7683.00,0.2215
7682.00,0.2215
7681.00,0.2215
7680.00,0.2215
7679.00,0.2215
7678.00,0.2215
7677.00,0.2215
7676.00,0.2215
7675.00,0.2215
7674.00,0.2215
7673.00,0.2215
7672.00,0.2215
7671.00,0.2214
7670.00,0.2214
7669.00,0.2213
7668.00,0.2213
7667.00,0.2212
7666.00,0.2212
7665.00,0.2212
7664.00,0.2212
7663.00,0.2212
7662.00,0.2212
7661.00,0.2212
7660.00,0.2212
7659.00,0.2212
7658.00,0.2213
7657.00,0.2214
7656.00,0.2214
7655.00,0.2214
7654.00,0.2214
7653.00,0.2215
7652.00,0.2215
7651.00,0.2215
7650.00,0.2214
7649.00,0.2214
7648.00,0.2213
7647.00,0.2212
7646.00,0.2212
7645.00,0.2211
7644.00,0.2210
7643.00,0.2210
7642.00,0.2210
7641.00,0.2211
7640.00,0.2212
7639.00,0.2213
7638.00,0.2213
7637.00,0.2213
7636.00,0.2213
7635.00,0.2213
7634.00,0.2213
7633.00,0.2213
7632.00,0.2213
7631.00,0.2212
7630.00,0.2212
7629.00,0.2212
7628.00,0.2213
7627.00,0.2213
7626.00,0.2213
7625.00,0.2213
7624.00,0.2213
7623.00,0.2213
7622.00,0.2213
7621.00,0.2212
7620.00,0.2212
7619.00,0.2213
7618.00,0.2213
7617.00,0.2213
7616.00,0.2213
7615.00,0.2213
7614.00,0.2214
7613.00,0.2215
7612.00,0.2215
7611.00,0.2216
7610.00,0.2216
7609.00,0.2216
7608.00,0.2216
7607.00,0.2216
7606.00,0.2217
7605.00,0.2217
7604.00,0.2216
7603.00,0.2215
7602.00,0.2215
7601.00,0.2215
7600.00,0.2216
7599.00,0.2217
7598.00,0.2217
7597.00,0.2217
7596.00,0.2217
7595.00,0.2217
7594.00,0.2218
7593.00,0.2219
7592.00,0.2218
7591.00,0.2217
7590.00,0.2216
7589.00,0.2217
7588.00,0.2218
7587.00,0.2219
7586.00,0.2219
7585.00,0.2219
7584.00,0.2219
7583.00,0.2220
7582.00,0.2221
7581.00,0.2222
7580.00,0.2222
7579.00,0.2222
7578.00,0.2222
7577.00,0.2223
7576.00,0.2224
7575.00,0.2224
7574.00,0.2225
7573.00,0.2225
7572.00,0.2225
7571.00,0.2225
7570.00,0.2225
7569.00,0.2226
7568.00,0.2226
7567.00,0.2226
7566.00,0.2226
7565.00,0.2226
7564.00,0.2226
7563.00,0.2226
7562.00,0.2226
7561.00,0.2227
7560.00,0.2227
7559.00,0.2228
7558.00,0.2229
7557.00,0.2230
7556.00,0.2231
7555.00,0.2232
7554.00,0.2232
7553.00,0.2232
7552.00,0.2232
7551.00,0.2232
7550.00,0.2232
7549.00,0.2233
7548.00,0.2233
7547.00,0.2234
7546.00,0.2235
7545.00,0.2236
7544.00,0.2237
7543.00,0.2238
7542.00,0.2239
7541.00,0.2240
7540.00,0.2240
7539.00,0.2240
7538.00,0.2240
7537.00,0.2240
7536.00,0.2241
7535.00,0.2241
7534.00,0.2242
7533.00,0.2242
7532.00,0.2243
7531.00,0.2243
7530.00,0.2244
7529.00,0.2245
7528.00,0.2246
7527.00,0.2247
7526.00,0.2248
7525.00,0.2249
7524.00,0.2251
7523.00,0.2252
7522.00,0.2252
7521.00,0.2253
7520.00,0.2254
7519.00,0.2255
7518.00,0.2255
7517.00,0.2255
7516.00,0.2255
7515.00,0.2255
7514.00,0.2256
7513.00,0.2256
7512.00,0.2257
7511.00,0.2257
7510.00,0.2258
7509.00,0.2260
7508.00,0.2261
7507.00,0.2262
7506.00,0.2263
7505.00,0.2264
7504.00,0.2265
7503.00,0.2266
7502.00,0.2266
7501.00,0.2267
7500.00,0.2268
7499.00,0.2269
7498.00,0.2270
7497.00,0.2271
7496.00,0.2272
7495.00,0.2273
7494.00,0.2274
7493.00,0.2274
7492.00,0.2274
7491.00,0.2275
7490.00,0.2276
7489.00,0.2278
7488.00,0.2280
7487.00,0.2281
7486.00,0.2283
7485.00,0.2284
7484.00,0.2285
7483.00,0.2286
7482.00,0.2287
7481.00,0.2287
7480.00,0.2288
7479.00,0.2289
7478.00,0.2290
7477.00,0.2291
7476.00,0.2292
7475.00,0.2294
7474.00,0.2295
7473.00,0.2296
7472.00,0.2296
7471.00,0.2297
7470.00,0.2297
7469.00,0.2298
7468.00,0.2299
7467.00,0.2300
7466.00,0.2301
7465.00,0.2303
7464.00,0.2304
7463.00,0.2305
7462.00,0.2306
7461.00,0.2307
7460.00,0.2308
7459.00,0.2309
7458.00,0.2310
7457.00,0.2311
7456.00,0.2313
7455.00,0.2315
7454.00,0.2316
7453.00,0.2318
7452.00,0.2319
7451.00,0.2320
7450.00,0.2321
7449.00,0.2322
7448.00,0.2323
7447.00,0.2324
7446.00,0.2325
7445.00,0.2327
7444.00,0.2328
7443.00,0.2330
7442.00,0.2331
7441.00,0.2332
7440.00,0.2334
7439.00,0.2336
7438.00,0.2337
7437.00,0.2338
7436.00,0.2339
7435.00,0.2340
7434.00,0.2340
7433.00,0.2341
7432.00,0.2342
7431.00,0.2344
7430.00,0.2345
7429.00,0.2346
7428.00,0.2347
7427.00,0.2349
7426.00,0.2351
7425.00,0.2353
7424.00,0.2356
7423.00,0.2359
7422.00,0.2361
7421.00,0.2363
7420.00,0.2365
7419.00,0.2367
7418.00,0.2368
7417.00,0.2369
7416.00,0.2369
7415.00,0.2368
7414.00,0.2368
7413.00,0.2368
7412.00,0.2370
7411.00,0.2372
7410.00,0.2375
7409.00,0.2377
7408.00,0.2378
7407.00,0.2379
7406.00,0.2381
7405.00,0.2383
7404.00,0.2385
7403.00,0.2386
7402.00,0.2388
7401.00,0.2389
7400.00,0.2391
7399.00,0.2394
7398.00,0.2396
7397.00,0.2398
7396.00,0.2399
7395.00,0.2400
7394.00,0.2401
7393.00,0.2403
7392.00,0.2404
7391.00,0.2405
7390.00,0.2407
7389.00,0.2409
7388.00,0.2412
7387.00,0.2416
7386.00,0.2420
7385.00,0.2425
7384.00,0.2428
7383.00,0.2431
7382.00,0.2434
7381.00,0.2438
7380.00,0.2441
7379.00,0.2441
7378.00,0.2438
7377.00,0.2434
7376.00,0.2431
7375.00,0.2432
7374.00,0.2435
7373.00,0.2438
7372.00,0.2438
7371.00,0.2438
7370.00,0.2440
7369.00,0.2443
7368.00,0.2446
7367.00,0.2448
7366.00,0.2449
7365.00,0.2448
7364.00,0.2447
7363.00,0.2448
7362.00,0.2451
7361.00,0.2457
7360.00,0.2462
7359.00,0.2466
7358.00,0.2465
7357.00,0.2464
7356.00,0.2463
7355.00,0.2465
7354.00,0.2467
7353.00,0.2470
7352.00,0.2471
7351.00,0.2472
7350.00,0.2475
7349.00,0.2481
7348.00,0.2488
7347.00,0.2495
7346.00,0.2499
7345.00,0.2503
7344.00,0.2506
7343.00,0.2506
7342.00,0.2503
7341.00,0.2498
7340.00,0.2492
7339.00,0.2486
7338.00,0.2481
7337.00,0.2476
7336.00,0.2473
7335.00,0.2475
7334.00,0.2482
7333.00,0.2492
7332.00,0.2501
7331.00,0.2507
7330.00,0.2509
7329.00,0.2510
7328.00,0.2512
7327.00,0.2512
7326.00,0.2508
7325.00,0.2501
7324.00,0.2496
7323.00,0.2493
7322.00,0.2493
7321.00,0.2495
7320.00,0.2495
7319.00,0.2496
7318.00,0.2498
7317.00,0.2503
7316.00,0.2509
7315.00,0.2514
7314.00,0.2517
7313.00,0.2519
7312.00,0.2521
7311.00,0.2524
7310.00,0.2524
7309.00,0.2521
7308.00,0.2515
7307.00,0.2511
7306.00,0.2510
7305.00,0.2511
7304.00,0.2512
7303.00,0.2512
7302.00,0.2513
7301.00,0.2515
7300.00,0.2519
7299.00,0.2525
7298.00,0.2528
7297.00,0.2528
7296.00,0.2525
7295.00,0.2523
7294.00,0.2523
7293.00,0.2525
7292.00,0.2525
7291.00,0.2522
7290.00,0.2518
7289.00,0.2517
7288.00,0.2517
7287.00,0.2519
7286.00,0.2519
7285.00,0.2519
7284.00,0.2518
7283.00,0.2518
7282.00,0.2519
7281.00,0.2520
7280.00,0.2521
7279.00,0.2522
7278.00,0.2523
7277.00,0.2524
7276.00,0.2525
7275.00,0.2525
7274.00,0.2526
7273.00,0.2526
7272.00,0.2527
7271.00,0.2527
7270.00,0.2527
7269.00,0.2527
7268.00,0.2529
7267.00,0.2533
7266.00,0.2535
7265.00,0.2536
7264.00,0.2534
7263.00,0.2533
7262.00,0.2532
7261.00,0.2532
7260.00,0.2532
7259.00,0.2534
7258.00,0.2536
7257.00,0.2540
7256.00,0.2544
7255.00,0.2545
7254.00,0.2545
7253.00,0.2545
7252.00,0.2544
7251.00,0.2543
7250.00,0.2544
7249.00,0.2549
7248.00,0.2558
7247.00,0.2569
7246.00,0.2577
7245.00,0.2580
7244.00,0.2580
7243.00,0.2576
7242.00,0.2572
7241.00,0.2567
7240.00,0.2563
7239.00,0.2562
7238.00,0.2568
7237.00,0.2579
7236.00,0.2592
7235.00,0.2599
7234.00,0.2601
7233.00,0.2599
7232.00,0.2597
7231.00,0.2593
7230.00,0.2587
7229.00,0.2579
7228.00,0.2573
7227.00,0.2572
7226.00,0.2576
7225.00,0.2583
7224.00,0.2588
7223.00,0.2590
7222.00,0.2590
7221.00,0.2591
7220.00,0.2593
7219.00,0.2596
7218.00,0.2597
7217.00,0.2595
7216.00,0.2593
7215.00,0.2591
7214.00,0.2591
7213.00,0.2592
7212.00,0.2593
7211.00,0.2596
7210.00,0.2601
7209.00,0.2608
7208.00,0.2615
7207.00,0.2620
7206.00,0.2624
7205.00,0.2625
7204.00,0.2625
7203.00,0.2624
7202.00,0.2621
7201.00,0.2618
7200.00,0.2617
7199.00,0.2619
7198.00,0.2623
7197.00,0.2626
7196.00,0.2628
7195.00,0.2630
7194.00,0.2632
7193.00,0.2633
7192.00,0.2633
7191.00,0.2635
7190.00,0.2638
7189.00,0.2643
7188.00,0.2650
7187.00,0.2657
7186.00,0.2666
7185.00,0.2673
7184.00,0.2676
7183.00,0.2677
7182.00,0.2676
7181.00,0.2675
7180.00,0.2674
7179.00,0.2672
7178.00,0.2670
7177.00,0.2670
7176.00,0.2673
7175.00,0.2680
7174.00,0.2689
7173.00,0.2697
7172.00,0.2705
7171.00,0.2710
7170.00,0.2714
7169.00,0.2718
7168.00,0.2722
7167.00,0.2726
7166.00,0.2730
7165.00,0.2733
7164.00,0.2734
7163.00,0.2735
7162.00,0.2735
7161.00,0.2736
7160.00,0.2737
7159.00,0.2736
7158.00,0.2734
7157.00,0.2733
7156.00,0.2734
7155.00,0.2737
7154.00,0.2741
7153.00,0.2745
7152.00,0.2750
7151.00,0.2756
7150.00,0.2763
7149.00,0.2770
7148.00,0.2777
7147.00,0.2783
7146.00,0.2790
7145.00,0.2797
7144.00,0.2805
7143.00,0.2810
7142.00,0.2812
7141.00,0.2813
7140.00,0.2816
7139.00,0.2819
7138.00,0.2820
7137.00,0.2819
7136.00,0.2817
7135.00,0.2816
7134.00,0.2818
7133.00,0.2821
7132.00,0.2824
7131.00,0.2827
7130.00,0.2832
7129.00,0.2836
7128.00,0.2842
7127.00,0.2847
7126.00,0.2853
7125.00,0.2858
7124.00,0.2866
7123.00,0.2875
7122.00,0.2886
7121.00,0.2895
7120.00,0.2900
7119.00,0.2902
7118.00,0.2903
7117.00,0.2903
7116.00,0.2903
7115.00,0.2901
7114.00,0.2901
7113.00,0.2904
7112.00,0.2912
7111.00,0.2922
7110.00,0.2933
7109.00,0.2941
7108.00,0.2946
7107.00,0.2948
7106.00,0.2950
7105.00,0.2952
7104.00,0.2953
7103.00,0.2955
7102.00,0.2959
7101.00,0.2967
7100.00,0.2977
7099.00,0.2987
7098.00,0.2996
7097.00,0.3001
7096.00,0.3005
7095.00,0.3007
7094.00,0.3009
7093.00,0.3010
7092.00,0.3011
7091.00,0.3013
7090.00,0.3018
7089.00,0.3024
7088.00,0.3031
7087.00,0.3037
7086.00,0.3043
7085.00,0.3049
7084.00,0.3055
7083.00,0.3060
7082.00,0.3064
7081.00,0.3068
7080.00,0.3073
7079.00,0.3079
7078.00,0.3085
7077.00,0.3091
7076.00,0.3099
7075.00,0.3108
7074.00,0.3117
7073.00,0.3125
7072.00,0.3131
7071.00,0.3136
7070.00,0.3139
7069.00,0.3142
7068.00,0.3144
7067.00,0.3147
7066.00,0.3151
7065.00,0.3155
7064.00,0.3160
7063.00,0.3166
7062.00,0.3172
7061.00,0.3178
7060.00,0.3185
7059.00,0.3191
7058.00,0.3198
7057.00,0.3204
7056.00,0.3210
7055.00,0.3216
7054.00,0.3223
7053.00,0.3230
7052.00,0.3238
7051.00,0.3245
7050.00,0.3251
7049.00,0.3258
7048.00,0.3264
7047.00,0.3270
7046.00,0.3276
7045.00,0.3280
7044.00,0.3283
7043.00,0.3287
7042.00,0.3292
7041.00,0.3297
7040.00,0.3303
7039.00,0.3308
7038.00,0.3314
7037.00,0.3319
7036.00,0.3325
7035.00,0.3331
7034.00,0.3337
7033.00,0.3343
7032.00,0.3349
7031.00,0.3356
7030.00,0.3363
7029.00,0.3369
7028.00,0.3376
7027.00,0.3383
7026.00,0.3389
7025.00,0.3393
7024.00,0.3398
7023.00,0.3402
7022.00,0.3407
7021.00,0.3412
7020.00,0.3416
7019.00,0.3421
7018.00,0.3426
7017.00,0.3432
7016.00,0.3438
7015.00,0.3444
7014.00,0.3449
7013.00,0.3454
7012.00,0.3460
7011.00,0.3465
7010.00,0.3471
7009.00,0.3476
7008.00,0.3482
7007.00,0.3488
7006.00,0.3494
7005.00,0.3500
7004.00,0.3506
7003.00,0.3511
7002.00,0.3516
7001.00,0.3521
7000.00,0.3526
6999.00,0.3530
6998.00,0.3534
6997.00,0.3539
6996.00,0.3543
6995.00,0.3547
6994.00,0.3552
6993.00,0.3556
6992.00,0.3560
6991.00,0.3565
6990.00,0.3570
6989.00,0.3575
6988.00,0.3580
6987.00,0.3586
6986.00,0.3592
6985.00,0.3597
6984.00,0.3602
6983.00,0.3606
6982.00,0.3610
6981.00,0.3613
6980.00,0.3617
6979.00,0.3620
6978.00,0.3623
6977.00,0.3627
6976.00,0.3632
6975.00,0.3637
6974.00,0.3641
6973.00,0.3645
6972.00,0.3649
6971.00,0.3652
6970.00,0.3655
6969.00,0.3658
6968.00,0.3661
6967.00,0.3665
6966.00,0.3669
6965.00,0.3673
6964.00,0.3677
6963.00,0.3681
6962.00,0.3685
6961.00,0.3689
6960.00,0.3693
6959.00,0.3697
6958.00,0.3701
6957.00,0.3705
6956.00,0.3707
6955.00,0.3710
6954.00,0.3713
6953.00,0.3715
6952.00,0.3718
6951.00,0.3721
6950.00,0.3725
6949.00,0.3729
6948.00,0.3733
6947.00,0.3736
6946.00,0.3738
6945.00,0.3740
6944.00,0.3742
6943.00,0.3744
6942.00,0.3746
6941.00,0.3749
6940.00,0.3752
6939.00,0.3756
6938.00,0.3759
6937.00,0.3762
6936.00,0.3764
6935.00,0.3767
6934.00,0.3769
6933.00,0.3772
6932.00,0.3774
6931.00,0.3776
6930.00,0.3778
6929.00,0.3780
6928.00,0.3782
6927.00,0.3784
6926.00,0.3786
6925.00,0.3788
6924.00,0.3790
6923.00,0.3793
6922.00,0.3797
6921.00,0.3800
6920.00,0.3803
6919.00,0.3805
6918.00,0.3807
6917.00,0.3808
6916.00,0.3809
6915.00,0.3810
6914.00,0.3810
6913.00,0.3810
6912.00,0.3811
6911.00,0.3814
6910.00,0.3816
6909.00,0.3818
6908.00,0.3819
6907.00,0.3820
6906.00,0.3821
6905.00,0.3823
6904.00,0.3824
6903.00,0.3826
6902.00,0.3828
6901.00,0.3830
6900.00,0.3833
6899.00,0.3836
6898.00,0.3838
6897.00,0.3840
6896.00,0.3842
6895.00,0.3843
6894.00,0.3844
6893.00,0.3844
6892.00,0.3844
6891.00,0.3845
6890.00,0.3846
6889.00,0.3847
6888.00,0.3848
6887.00,0.3849
6886.00,0.3850
6885.00,0.3851
6884.00,0.3852
6883.00,0.3852
6882.00,0.3853
6881.00,0.3854
6880.00,0.3855
6879.00,0.3857
6878.00,0.3859
6877.00,0.3860
6876.00,0.3862
6875.00,0.3864
6874.00,0.3865
6873.00,0.3866
6872.00,0.3866
6871.00,0.3866
6870.00,0.3867
6869.00,0.3868
6868.00,0.3868
6867.00,0.3870
6866.00,0.3871
6865.00,0.3872
6864.00,0.3873
6863.00,0.3874
6862.00,0.3875
6861.00,0.3875
6860.00,0.3875
6859.00,0.3876
6858.00,0.3876
6857.00,0.3876
6856.00,0.3877
6855.00,0.3878
6854.00,0.3879
6853.00,0.3880
6852.00,0.3881
6851.00,0.3882
6850.00,0.3883
6849.00,0.3884
6848.00,0.3885
6847.00,0.3885
6846.00,0.3886
6845.00,0.3886
6844.00,0.3886
6843.00,0.3887
6842.00,0.3888
6841.00,0.3888
6840.00,0.3889
6839.00,0.3889
6838.00,0.3890
6837.00,0.3891
6836.00,0.3891
6835.00,0.3891
6834.00,0.3891
6833.00,0.3891
6832.00,0.3892
6831.00,0.3892
6830.00,0.3893
6829.00,0.3893
6828.00,0.3894
6827.00,0.3895
6826.00,0.3896
6825.00,0.3897
6824.00,0.3898
6823.00,0.3898
6822.00,0.3898
6821.00,0.3898
6820.00,0.3898
6819.00,0.3899
6818.00,0.3899
6817.00,0.3899
6816.00,0.3899
6815.00,0.3899
6814.00,0.3899
6813.00,0.3899
6812.00,0.3899
6811.00,0.3899
6810.00,0.3900
6809.00,0.3900
6808.00,0.3901
6807.00,0.3901
6806.00,0.3901
6805.00,0.3901
6804.00,0.3902
6803.00,0.3902
6802.00,0.3903
6801.00,0.3903
6800.00,0.3903
6799.00,0.3902
6798.00,0.3902
6797.00,0.3901
6796.00,0.3901
6795.00,0.3900
6794.00,0.3900
6793.00,0.3900
6792.00,0.3901
6791.00,0.3901
6790.00,0.3901
6789.00,0.3901
6788.00,0.3900
6787.00,0.3899
6786.00,0.3899
6785.00,0.3899
6784.00,0.3898
6783.00,0.3897
6782.00,0.3897
6781.00,0.3896
6780.00,0.3896
6779.00,0.3896
6778.00,0.3896
6777.00,0.3896
6776.00,0.3896
6775.00,0.3897
6774.00,0.3897
6773.00,0.3897
6772.00,0.3896
6771.00,0.3896
6770.00,0.3896
6769.00,0.3895
6768.00,0.3894
6767.00,0.3893
6766.00,0.3892
6765.00,0.3891
6764.00,0.3891
6763.00,0.3890
6762.00,0.3889
6761.00,0.3889
6760.00,0.3889
6759.00,0.3889
6758.00,0.3889
6757.00,0.3889
6756.00,0.3889
6755.00,0.3889
6754.00,0.3889
6753.00,0.3889
6752.00,0.3888
6751.00,0.3887
6750.00,0.3886
6749.00,0.3885
6748.00,0.3885
6747.00,0.3884
6746.00,0.3883
6745.00,0.3882
6744.00,0.3881
6743.00,0.3881
6742.00,0.3880
6741.00,0.3879
6740.00,0.3878
6739.00,0.3877
6738.00,0.3877
6737.00,0.3877
6736.00,0.3877
6735.00,0.3876
6734.00,0.3875
6733.00,0.3874
6732.00,0.3874
6731.00,0.3873
6730.00,0.3872
6729.00,0.3871
6728.00,0.3869
6727.00,0.3868
6726.00,0.3868
6725.00,0.3867
6724.00,0.3867
6723.00,0.3866
6722.00,0.3866
6721.00,0.3865
6720.00,0.3865
6719.00,0.3864
6718.00,0.3863
6717.00,0.3862
6716.00,0.3861
6715.00,0.3860
6714.00,0.3859
6713.00,0.3858
6712.00,0.3857
6711.00,0.3856
6710.00,0.3855
6709.00,0.3854
6708.00,0.3853
6707.00,0.3852
6706.00,0.3852
6705.00,0.3851
6704.00,0.3850
6703.00,0.3849
6702.00,0.3849
6701.00,0.3848
6700.00,0.3847
6699.00,0.3846
6698.00,0.3845
6697.00,0.3844
6696.00,0.3844
6695.00,0.3844
6694.00,0.3843
6693.00,0.3841
6692.00,0.3840
6691.00,0.3839
6690.00,0.3838
6689.00,0.3837
6688.00,0.3836
6687.00,0.3835
6686.00,0.3833
6685.00,0.3832
6684.00,0.3832
6683.00,0.3831
6682.00,0.3831
6681.00,0.3830
6680.00,0.3830
6679.00,0.3829
6678.00,0.3828
6677.00,0.3827
6676.00,0.3825
6675.00,0.3824
6674.00,0.3823
6673.00,0.3822
6672.00,0.3820
6671.00,0.3820
6670.00,0.3819
6669.00,0.3819
6668.00,0.3818
6667.00,0.3816
6666.00,0.3815
6665.00,0.3815
6664.00,0.3814
6663.00,0.3813
6662.00,0.3812
6661.00,0.3810
6660.00,0.3809
6659.00,0.3808
6658.00,0.3806
6657.00,0.3805
6656.00,0.3804
6655.00,0.3804
6654.00,0.3803
6653.00,0.3803
6652.00,0.3802
6651.00,0.3801
6650.00,0.3800
6649.00,0.3799
6648.00,0.3798
6647.00,0.3797
6646.00,0.3796
6645.00,0.3795
6644.00,0.3794
6643.00,0.3793
6642.00,0.3792
6641.00,0.3791
6640.00,0.3789
6639.00,0.3788
6638.00,0.3786
6637.00,0.3785
6636.00,0.3784
6635.00,0.3783
6634.00,0.3783
6633.00,0.3782
6632.00,0.3781
6631.00,0.3781
6630.00,0.3780
6629.00,0.3779
6628.00,0.3778
6627.00,0.3778
6626.00,0.3776
6625.00,0.3775
6624.00,0.3774
6623.00,0.3773
6622.00,0.3771
6621.00,0.3770
6620.00,0.3768
6619.00,0.3767
6618.00,0.3766
6617.00,0.3765
6616.00,0.3765
6615.00,0.3763
6614.00,0.3762
6613.00,0.3760
6612.00,0.3759
6611.00,0.3758
6610.00,0.3756
6609.00,0.3755
6608.00,0.3754
6607.00,0.3754
6606.00,0.3753
6605.00,0.3753
6604.00,0.3752
6603.00,0.3751
6602.00,0.3750
6601.00,0.3748
6600.00,0.3747
6599.00,0.3746
6598.00,0.3745
6597.00,0.3744
6596.00,0.3743
6595.00,0.3742
6594.00,0.3741
6593.00,0.3740
6592.00,0.3739
6591.00,0.3738
6590.00,0.3737
6589.00,0.3736
6588.00,0.3736
6587.00,0.3735
6586.00,0.3734
6585.00,0.3733
6584.00,0.3732
6583.00,0.3731
6582.00,0.3730
6581.00,0.3729
6580.00,0.3728
6579.00,0.3727
6578.00,0.3726
6577.00,0.3725
6576.00,0.3724
6575.00,0.3723
6574.00,0.3722
6573.00,0.3721
6572.00,0.3720
6571.00,0.3720
6570.00,0.3719
6569.00,0.3718
6568.00,0.3718
6567.00,0.3717
6566.00,0.3716
6565.00,0.3715
6564.00,0.3714
6563.00,0.3713
6562.00,0.3712
6561.00,0.3711
6560.00,0.3711
6559.00,0.3710
6558.00,0.3710
6557.00,0.3709
6556.00,0.3709
6555.00,0.3708
6554.00,0.3707
6553.00,0.3707
6552.00,0.3707
6551.00,0.3707
6550.00,0.3706
6549.00,0.3705
6548.00,0.3704
6547.00,0.3703
6546.00,0.3702
6545.00,0.3701
6544.00,0.3699
6543.00,0.3699
6542.00,0.3698
6541.00,0.3698
6540.00,0.3698
6539.00,0.3698
6538.00,0.3698
6537.00,0.3698
6536.00,0.3698
6535.00,0.3698
6534.00,0.3697
6533.00,0.3697
6532.00,0.3696
6531.00,0.3695
6530.00,0.3694
6529.00,0.3694
6528.00,0.3693
6527.00,0.3693
6526.00,0.3692
6525.00,0.3691
6524.00,0.3691
6523.00,0.3690
6522.00,0.3689
6521.00,0.3689
6520.00,0.3688
6519.00,0.3688
6518.00,0.3687
6517.00,0.3687
6516.00,0.3687
6515.00,0.3687
6514.00,0.3687
6513.00,0.3687
6512.00,0.3686
6511.00,0.3686
6510.00,0.3686
6509.00,0.3685
6508.00,0.3685
6507.00,0.3684
6506.00,0.3684
6505.00,0.3684
6504.00,0.3684
6503.00,0.3684
6502.00,0.3684
6501.00,0.3683
6500.00,0.3683
6499.00,0.3682
6498.00,0.3682
6497.00,0.3682
6496.00,0.3682
6495.00,0.3682
6494.00,0.3682
6493.00,0.3682
6492.00,0.3682
6491.00,0.3682
6490.00,0.3681
6489.00,0.3681
6488.00,0.3681
6487.00,0.3681
6486.00,0.3681
6485.00,0.3681
6484.00,0.3680
6483.00,0.3680
6482.00,0.3680
6481.00,0.3680
6480.00,0.3680
6479.00,0.3680
6478.00,0.3680
6477.00,0.3680
6476.00,0.3679
6475.00,0.3679
6474.00,0.3679
6473.00,0.3679
6472.00,0.3680
6471.00,0.3680
6470.00,0.3681
6469.00,0.3681
6468.00,0.3682
6467.00,0.3682
6466.00,0.3681
6465.00,0.3681
6464.00,0.3680
6463.00,0.3680
6462.00,0.3680
6461.00,0.3680
6460.00,0.3680
6459.00,0.3680
6458.00,0.3679
6457.00,0.3680
6456.00,0.3680
6455.00,0.3680
6454.00,0.3680
6453.00,0.3680
6452.00,0.3681
6451.00,0.3681
6450.00,0.3681
6449.00,0.3681
6448.00,0.3681
6447.00,0.3681
6446.00,0.3682
6445.00,0.3682
6444.00,0.3682
6443.00,0.3683
6442.00,0.3683
6441.00,0.3683
6440.00,0.3682
6439.00,0.3682
6438.00,0.3682
6437.00,0.3682
6436.00,0.3682
6435.00,0.3683
6434.00,0.3683
6433.00,0.3683
6432.00,0.3683
6431.00,0.3683
6430.00,0.3683
6429.00,0.3683
6428.00,0.3683
6427.00,0.3683
6426.00,0.3683
6425.00,0.3683
6424.00,0.3684
6423.00,0.3684
6422.00,0.3684
6421.00,0.3684
6420.00,0.3684
6419.00,0.3684
6418.00,0.3684
6417.00,0.3684
6416.00,0.3684
6415.00,0.3684
6414.00,0.3684
6413.00,0.3684
6412.00,0.3684
6411.00,0.3684
6410.00,0.3685
6409.00,0.3685
6408.00,0.3685
6407.00,0.3685
6406.00,0.3685
6405.00,0.3685
6404.00,0.3685
6403.00,0.3685
6402.00,0.3685
6401.00,0.3686
6400.00,0.3686
6399.00,0.3686
6398.00,0.3686
6397.00,0.3686
6396.00,0.3686
6395.00,0.3686
6394.00,0.3686
6393.00,0.3686
6392.00,0.3686
6391.00,0.3686
6390.00,0.3686
6389.00,0.3686
6388.00,0.3686
6387.00,0.3686
6386.00,0.3686
6385.00,0.3686
6384.00,0.3686
6383.00,0.3685
6382.00,0.3685
6381.00,0.3685
6380.00,0.3684
6379.00,0.3684
6378.00,0.3684
6377.00,0.3684
6376.00,0.3684
6375.00,0.3684
6374.00,0.3684
6373.00,0.3684
6372.00,0.3685
6371.00,0.3685
6370.00,0.3685
6369.00,0.3685
6368.00,0.3685
6367.00,0.3685
6366.00,0.3685
6365.00,0.3685
6364.00,0.3685
6363.00,0.3685
6362.00,0.3686
6361.00,0.3686
6360.00,0.3686
6359.00,0.3685
6358.00,0.3685
6357.00,0.3685
6356.00,0.3684
6355.00,0.3684
6354.00,0.3684
6353.00,0.3684
6352.00,0.3683
6351.00,0.3683
6350.00,0.3683
6349.00,0.3683
6348.00,0.3683
6347.00,0.3682
6346.00,0.3682
6345.00,0.3682
6344.00,0.3683
6343.00,0.3683
6342.00,0.3683
6341.00,0.3682
6340.00,0.3682
6339.00,0.3681
6338.00,0.3681
6337.00,0.3680
6336.00,0.3680
6335.00,0.3680
6334.00,0.3680
6333.00,0.3680
6332.00,0.3680
6331.00,0.3680
6330.00,0.3679
6329.00,0.3679
6328.00,0.3678
6327.00,0.3677
6326.00,0.3677
6325.00,0.3676
6324.00,0.3676
6323.00,0.3675
6322.00,0.3675
6321.00,0.3675
6320.00,0.3674
6319.00,0.3674
6318.00,0.3674
6317.00,0.3674
6316.00,0.3674
6315.00,0.3673
6314.00,0.3673
6313.00,0.3673
6312.00,0.3672
6311.00,0.3671
6310.00,0.3671
6309.00,0.3669
6308.00,0.3668
6307.00,0.3667
6306.00,0.3666
6305.00,0.3666
6304.00,0.3665
6303.00,0.3665
6302.00,0.3664
6301.00,0.3664
6300.00,0.3664
6299.00,0.3663
6298.00,0.3662
6297.00,0.3661
6296.00,0.3660
6295.00,0.3659
6294.00,0.3659
6293.00,0.3658
6292.00,0.3658
6291.00,0.3658
6290.00,0.3657
6289.00,0.3656
6288.00,0.3656
6287.00,0.3655
6286.00,0.3654
6285.00,0.3653
6284.00,0.3652
6283.00,0.3651
6282.00,0.3651
6281.00,0.3650
6280.00,0.3649
6279.00,0.3648
6278.00,0.3648
6277.00,0.3647
6276.00,0.3646
6275.00,0.3645
6274.00,0.3644
6273.00,0.3644
6272.00,0.3643
6271.00,0.3642
6270.00,0.3642
6269.00,0.3641
6268.00,0.3640
6267.00,0.3639
6266.00,0.3638
6265.00,0.3637
6264.00,0.3636
6263.00,0.3635
6262.00,0.3635
6261.00,0.3634
6260.00,0.3633
6259.00,0.3632
6258.00,0.3631
6257.00,0.3629
6256.00,0.3628
6255.00,0.3627
6254.00,0.3625
6253.00,0.3624
6252.00,0.3623
6251.00,0.3622
6250.00,0.3622
6249.00,0.3621
6248.00,0.3621
6247.00,0.3620
6246.00,0.3619
6245.00,0.3618
6244.00,0.3617
6243.00,0.3616
6242.00,0.3615
6241.00,0.3613
6240.00,0.3612
6239.00,0.3612
6238.00,0.3611
6237.00,0.3610
6236.00,0.3608
6235.00,0.3607
6234.00,0.3605
6233.00,0.3604
6232.00,0.3602
6231.00,0.3601
6230.00,0.3600
6229.00,0.3599
6228.00,0.3598
6227.00,0.3597
6226.00,0.3596
6225.00,0.3595
6224.00,0.3594
6223.00,0.3593
6222.00,0.3592
6221.00,0.3592
6220.00,0.3591
6219.00,0.3590
6218.00,0.3588
6217.00,0.3587
6216.00,0.3586
6215.00,0.3584
6214.00,0.3583
6213.00,0.3581
6212.00,0.3580
6211.00,0.3579
6210.00,0.3578
6209.00,0.3577
6208.00,0.3577
6207.00,0.3575
6206.00,0.3574
6205.00,0.3573
6204.00,0.3571
6203.00,0.3570
6202.00,0.3569
6201.00,0.3568
6200.00,0.3567
6199.00,0.3566
6198.00,0.3565
6197.00,0.3564
6196.00,0.3563
6195.00,0.3562
6194.00,0.3561
6193.00,0.3560
6192.00,0.3559
6191.00,0.3558
6190.00,0.3557
6189.00,0.3556
6188.00,0.3555
6187.00,0.3553
6186.00,0.3552
6185.00,0.3551
6184.00,0.3549
6183.00,0.3548
6182.00,0.3546
6181.00,0.3546
6180.00,0.3545
6179.00,0.3544
6178.00,0.3543
6177.00,0.3542
6176.00,0.3541
6175.00,0.3540
6174.00,0.3539
6173.00,0.3538
6172.00,0.3537
6171.00,0.3535
6170.00,0.3534
6169.00,0.3532
6168.00,0.3531
6167.00,0.3530
6166.00,0.3529
6165.00,0.3528
6164.00,0.3527
6163.00,0.3526
6162.00,0.3524
6161.00,0.3523
6160.00,0.3522
6159.00,0.3520
6158.00,0.3519
6157.00,0.3518
6156.00,0.3517
6155.00,0.3516
6154.00,0.3515
6153.00,0.3514
6152.00,0.3513
6151.00,0.3512
6150.00,0.3511
6149.00,0.3510
6148.00,0.3509
6147.00,0.3508
6146.00,0.3506
6145.00,0.3505
6144.00,0.3504
6143.00,0.3503
6142.00,0.3501
6141.00,0.3500
6140.00,0.3499
6139.00,0.3498
6138.00,0.3497
6137.00,0.3495
6136.00,0.3494
6135.00,0.3493
6134.00,0.3492
6133.00,0.3491
6132.00,0.3491
6131.00,0.3490
6130.00,0.3489
6129.00,0.3488
6128.00,0.3486
6127.00,0.3485
6126.00,0.3484
6125.00,0.3483
6124.00,0.3482
6123.00,0.3481
6122.00,0.3480
6121.00,0.3479
6120.00,0.3478
6119.00,0.3477
6118.00,0.3476
6117.00,0.3475
6116.00,0.3474
6115.00,0.3472
6114.00,0.3471
6113.00,0.3469
6112.00,0.3467
6111.00,0.3466
6110.00,0.3465
6109.00,0.3464
6108.00,0.3463
6107.00,0.3462
6106.00,0.3462
6105.00,0.3461
6104.00,0.3460
6103.00,0.3458
6102.00,0.3457
6101.00,0.3456
6100.00,0.3455
6099.00,0.3454
6098.00,0.3453
6097.00,0.3452
6096.00,0.3451
6095.00,0.3451
6094.00,0.3450
6093.00,0.3448
6092.00,0.3447
6091.00,0.3446
6090.00,0.3445
6089.00,0.3444
6088.00,0.3442
6087.00,0.3441
6086.00,0.3441
6085.00,0.3440
6084.00,0.3439
6083.00,0.3438
6082.00,0.3437
6081.00,0.3436
6080.00,0.3435
6079.00,0.3433
6078.00,0.3432
6077.00,0.3431
6076.00,0.3430
6075.00,0.3429
6074.00,0.3429
6073.00,0.3428
6072.00,0.3427
6071.00,0.3426
6070.00,0.3425
6069.00,0.3424
6068.00,0.3424
6067.00,0.3423
6066.00,0.3423
6065.00,0.3422
6064.00,0.3421
6063.00,0.3421
6062.00,0.3420
6061.00,0.3419
6060.00,0.3418
6059.00,0.3417
6058.00,0.3416
6057.00,0.3415
6056.00,0.3414
6055.00,0.3413
6054.00,0.3412
6053.00,0.3411
6052.00,0.3410
6051.00,0.3409
6050.00,0.3409
6049.00,0.3408
6048.00,0.3407
6047.00,0.3406
6046.00,0.3406
6045.00,0.3406
6044.00,0.3405
6043.00,0.3404
6042.00,0.3403
6041.00,0.3403
6040.00,0.3402
6039.00,0.3401
6038.00,0.3400
6037.00,0.3399
6036.00,0.3399
6035.00,0.3398
6034.00,0.3397
6033.00,0.3397
6032.00,0.3396
6031.00,0.3395
6030.00,0.3395
6029.00,0.3394
6028.00,0.3394
6027.00,0.3393
6026.00,0.3393
6025.00,0.3392
6024.00,0.3392
6023.00,0.3391
6022.00,0.3391
6021.00,0.3391
6020.00,0.3390
6019.00,0.3390
6018.00,0.3389
6017.00,0.3389
6016.00,0.3388
6015.00,0.3388
6014.00,0.3387
6013.00,0.3387
6012.00,0.3387
6011.00,0.3387
6010.00,0.3387
6009.00,0.3386
6008.00,0.3386
6007.00,0.3385
6006.00,0.3385
6005.00,0.3384
6004.00,0.3384
6003.00,0.3383
6002.00,0.3383
6001.00,0.3383
6000.00,0.3383
5999.00,0.3383
5998.00,0.3383
5997.00,0.3383
5996.00,0.3384
5995.00,0.3384
5994.00,0.3384
5993.00,0.3383
5992.00,0.3383
5991.00,0.3383
5990.00,0.3382
5989.00,0.3383
5988.00,0.3383
5987.00,0.3383
5986.00,0.3384
5985.00,0.3384
5984.00,0.3385
5983.00,0.3385
5982.00,0.3386
5981.00,0.3386
5980.00,0.3387
5979.00,0.3387
5978.00,0.3388
5977.00,0.3388
5976.00,0.3388
5975.00,0.3389
5974.00,0.3389
5973.00,0.3390
5972.00,0.3390
5971.00,0.3391
5970.00,0.3392
5969.00,0.3392
5968.00,0.3393
5967.00,0.3394
5966.00,0.3394
5965.00,0.3395
5964.00,0.3397
5963.00,0.3398
5962.00,0.3399
5961.00,0.3400
5960.00,0.3402
5959.00,0.3403
5958.00,0.3404
5957.00,0.3405
5956.00,0.3406
5955.00,0.3407
5954.00,0.3408
5953.00,0.3410
5952.00,0.3411
5951.00,0.3413
5950.00,0.3415
5949.00,0.3417
5948.00,0.3419
5947.00,0.3420
5946.00,0.3421
5945.00,0.3423
5944.00,0.3424
5943.00,0.3426
5942.00,0.3428
5941.00,0.3430
5940.00,0.3432
5939.00,0.3434
5938.00,0.3435
5937.00,0.3437
5936.00,0.3438
5935.00,0.3440
5934.00,0.3442
5933.00,0.3443
5932.00,0.3445
5931.00,0.3446
5930.00,0.3448
5929.00,0.3449
5928.00,0.3451
5927.00,0.3453
5926.00,0.3454
5925.00,0.3456
5924.00,0.3457
5923.00,0.3459
5922.00,0.3460
5921.00,0.3461
5920.00,0.3462
5919.00,0.3463
5918.00,0.3464
5917.00,0.3465
5916.00,0.3466
5915.00,0.3467
5914.00,0.3468
5913.00,0.3469
5912.00,0.3469
5911.00,0.3470
5910.00,0.3470
5909.00,0.3471
5908.00,0.3472
5907.00,0.3472
5906.00,0.3473
5905.00,0.3474
5904.00,0.3475
5903.00,0.3475
5902.00,0.3476
5901.00,0.3476
5900.00,0.3477
5899.00,0.3477
5898.00,0.3477
5897.00,0.3478
5896.00,0.3478
5895.00,0.3478
5894.00,0.3478
5893.00,0.3479
5892.00,0.3479
5891.00,0.3479
5890.00,0.3480
5889.00,0.3480
5888.00,0.3480
5887.00,0.3481
5886.00,0.3481
5885.00,0.3481
5884.00,0.3482
5883.00,0.3482
5882.00,0.3482
5881.00,0.3483
5880.00,0.3483
5879.00,0.3484
5878.00,0.3485
5877.00,0.3486
5876.00,0.3486
5875.00,0.3487
5874.00,0.3488
5873.00,0.3488
5872.00,0.3488
5871.00,0.3489
5870.00,0.3489
5869.00,0.3490
5868.00,0.3491
5867.00,0.3492
5866.00,0.3493
5865.00,0.3494
5864.00,0.3494
5863.00,0.3494
5862.00,0.3495
5861.00,0.3495
5860.00,0.3495
5859.00,0.3496
5858.00,0.3497
5857.00,0.3498
5856.00,0.3499
5855.00,0.3500
5854.00,0.3500
5853.00,0.3501
5852.00,0.3501
5851.00,0.3502
5850.00,0.3503
5849.00,0.3504
5848.00,0.3505
5847.00,0.3506
5846.00,0.3507
5845.00,0.3508
5844.00,0.3509
5843.00,0.3510
5842.00,0.3511
5841.00,0.3512
5840.00,0.3513
5839.00,0.3515
5838.00,0.3516
5837.00,0.3517
5836.00,0.3518
5835.00,0.3520
5834.00,0.3521
5833.00,0.3522
5832.00,0.3523
5831.00,0.3524
5830.00,0.3526
5829.00,0.3527
5828.00,0.3529
5827.00,0.3530
5826.00,0.3532
5825.00,0.3533
5824.00,0.3535
5823.00,0.3536
5822.00,0.3538
5821.00,0.3539
5820.00,0.3540
5819.00,0.3542
5818.00,0.3543
5817.00,0.3544
5816.00,0.3546
5815.00,0.3547
5814.00,0.3548
5813.00,0.3550
5812.00,0.3552
5811.00,0.3553
5810.00,0.3555
5809.00,0.3556
5808.00,0.3557
5807.00,0.3558
5806.00,0.3560
5805.00,0.3561
5804.00,0.3562
5803.00,0.3564
5802.00,0.3565
5801.00,0.3565
5800.00,0.3566
5799.00,0.3567
5798.00,0.3568
5797.00,0.3569
5796.00,0.3571
5795.00,0.3572
5794.00,0.3574
5793.00,0.3575
5792.00,0.3576
5791.00,0.3577
5790.00,0.3578
5789.00,0.3579
5788.00,0.3580
5787.00,0.3580
5786.00,0.3581
5785.00,0.3582
5784.00,0.3583
5783.00,0.3584
5782.00,0.3585
5781.00,0.3586
5780.00,0.3586
5779.00,0.3587
5778.00,0.3588
5777.00,0.3588
5776.00,0.3588
5775.00,0.3588
5774.00,0.3589
5773.00,0.3589
5772.00,0.3590
5771.00,0.3590
5770.00,0.3591
5769.00,0.3592
5768.00,0.3592
5767.00,0.3592
5766.00,0.3593
5765.00,0.3593
5764.00,0.3594
5763.00,0.3594
5762.00,0.3595
5761.00,0.3595
5760.00,0.3596
5759.00,0.3596
5758.00,0.3596
5757.00,0.3596
5756.00,0.3596
5755.00,0.3596
5754.00,0.3597
5753.00,0.3597
5752.00,0.3597
5751.00,0.3597
5750.00,0.3598
5749.00,0.3599
5748.00,0.3599
5747.00,0.3599
5746.00,0.3600
5745.00,0.3600
5744.00,0.3601
5743.00,0.3601
5742.00,0.3601
5741.00,0.3602
5740.00,0.3602
5739.00,0.3602
5738.00,0.3603
5737.00,0.3603
5736.00,0.3603
5735.00,0.3604
5734.00,0.3604
5733.00,0.3604
5732.00,0.3604
5731.00,0.3603
5730.00,0.3603
5729.00,0.3604
5728.00,0.3604
5727.00,0.3605
5726.00,0.3605
5725.00,0.3606
5724.00,0.3606
5723.00,0.3606
5722.00,0.3605
5721.00,0.3605
5720.00,0.3605
5719.00,0.3606
5718.00,0.3606
5717.00,0.3607
5716.00,0.3607
5715.00,0.3608
5714.00,0.3608
5713.00,0.3609
5712.00,0.3609
5711.00,0.3609
5710.00,0.3609
5709.00,0.3609
5708.00,0.3609
5707.00,0.3609
5706.00,0.3609
5705.00,0.3610
5704.00,0.3610
5703.00,0.3611
5702.00,0.3611
5701.00,0.3611
5700.00,0.3612
5699.00,0.3612
5698.00,0.3612
5697.00,0.3612
5696.00,0.3612
5695.00,0.3612
5694.00,0.3613
5693.00,0.3614
5692.00,0.3614
5691.00,0.3615
5690.00,0.3615
5689.00,0.3614
5688.00,0.3614
5687.00,0.3614
5686.00,0.3614
5685.00,0.3614
5684.00,0.3615
5683.00,0.3616
5682.00,0.3616
5681.00,0.3617
5680.00,0.3617
5679.00,0.3617
5678.00,0.3617
5677.00,0.3617
5676.00,0.3618
5675.00,0.3618
5674.00,0.3618
5673.00,0.3618
5672.00,0.3618
5671.00,0.3619
5670.00,0.3619
5669.00,0.3620
5668.00,0.3620
5667.00,0.3621
5666.00,0.3621
5665.00,0.3622
5664.00,0.3621
5663.00,0.3621
5662.00,0.3620
5661.00,0.3620
5660.00,0.3619
5659.00,0.3619
5658.00,0.3619
5657.00,0.3619
5656.00,0.3620
5655.00,0.3620
5654.00,0.3620
5653.00,0.3620
5652.00,0.3620
5651.00,0.3619
5650.00,0.3619
5649.00,0.3619
5648.00,0.3619
5647.00,0.3619
5646.00,0.3619
5645.00,0.3619
5644.00,0.3619
5643.00,0.3619
5642.00,0.3619
5641.00,0.3619
5640.00,0.3619
5639.00,0.3619
5638.00,0.3618
5637.00,0.3618
5636.00,0.3618
5635.00,0.3617
5634.00,0.3617
5633.00,0.3617
5632.00,0.3617
5631.00,0.3617
5630.00,0.3617
5629.00,0.3617
5628.00,0.3617
5627.00,0.3617
5626.00,0.3617
5625.00,0.3617
5624.00,0.3616
5623.00,0.3616
5622.00,0.3615
5621.00,0.3615
5620.00,0.3615
5619.00,0.3614
5618.00,0.3614
5617.00,0.3614
5616.00,0.3613
5615.00,0.3613
5614.00,0.3612
5613.00,0.3611
5612.00,0.3611
5611.00,0.3610
5610.00,0.3610
5609.00,0.3609
5608.00,0.3610
5607.00,0.3610
5606.00,0.3610
5605.00,0.3610
5604.00,0.3609
5603.00,0.3609
5602.00,0.3608
5601.00,0.3607
5600.00,0.3606
5599.00,0.3606
5598.00,0.3605
5597.00,0.3605
5596.00,0.3604
5595.00,0.3603
5594.00,0.3602
5593.00,0.3602
5592.00,0.3601
5591.00,0.3600
5590.00,0.3600
5589.00,0.3599
5588.00,0.3599
5587.00,0.3598
5586.00,0.3597
5585.00,0.3597
5584.00,0.3596
5583.00,0.3596
5582.00,0.3595
5581.00,0.3595
5580.00,0.3594
5579.00,0.3594
5578.00,0.3593
5577.00,0.3592
5576.00,0.3591
5575.00,0.3591
5574.00,0.3590
5573.00,0.3589
5572.00,0.3588
5571.00,0.3587
5570.00,0.3587
5569.00,0.3587
5568.00,0.3587
5567.00,0.3586
5566.00,0.3585
5565.00,0.3584
5564.00,0.3583
5563.00,0.3581
5562.00,0.3580
5561.00,0.3579
5560.00,0.3579
5559.00,0.3579
5558.00,0.3579
5557.00,0.3579
5556.00,0.3580
5555.00,0.3580
5554.00,0.3579
5553.00,0.3579
5552.00,0.3578
5551.00,0.3577
5550.00,0.3576
5549.00,0.3574
5548.00,0.3573
5547.00,0.3571
5546.00,0.3570
5545.00,0.3569
5544.00,0.3567
5543.00,0.3567
5542.00,0.3567
5541.00,0.3568
5540.00,0.3570
5539.00,0.3570
5538.00,0.3570
5537.00,0.3569
5536.00,0.3568
5535.00,0.3565
5534.00,0.3563
5533.00,0.3561
5532.00,0.3560
5531.00,0.3559
5530.00,0.3559
5529.00,0.3558
5528.00,0.3557
5527.00,0.3558
5526.00,0.3559
5525.00,0.3560
5524.00,0.3561
5523.00,0.3561
5522.00,0.3560
5521.00,0.3559
5520.00,0.3558
5519.00,0.3557
5518.00,0.3556
5517.00,0.3555
5516.00,0.3553
5515.00,0.3551
5514.00,0.3549
5513.00,0.3549
5512.00,0.3552
5511.00,0.3556
5510.00,0.3560
5509.00,0.3561
5508.00,0.3560
5507.00,0.3557
5506.00,0.3553
5505.00,0.3549
5504.00,0.3546
5503.00,0.3546
5502.00,0.3546
5501.00,0.3545
5500.00,0.3544
5499.00,0.3544
5498.00,0.3547
5497.00,0.3553
5496.00,0.3559
5495.00,0.3563
5494.00,0.3566
5493.00,0.3567
5492.00,0.3565
5491.00,0.3560
5490.00,0.3553
5489.00,0.3546
5488.00,0.3541
5487.00,0.3537
5486.00,0.3532
5485.00,0.3528
5484.00,0.3526
5483.00,0.3525
5482.00,0.3526
5481.00,0.3530
5480.00,0.3537
5479.00,0.3546
5478.00,0.3553
5477.00,0.3556
5476.00,0.3553
5475.00,0.3546
5474.00,0.3538
5473.00,0.3531
5472.00,0.3528
5471.00,0.3529
5470.00,0.3533
5469.00,0.3535
5468.00,0.3536
5467.00,0.3534
5466.00,0.3534
5465.00,0.3535
5464.00,0.3536
5463.00,0.3537
5462.00,0.3535
5461.00,0.3531
5460.00,0.3527
5459.00,0.3522
5458.00,0.3518
5457.00,0.3513
5456.00,0.3510
5455.00,0.3509
5454.00,0.3510
5453.00,0.3512
5452.00,0.3515
5451.00,0.3520
5450.00,0.3526
5449.00,0.3531
5448.00,0.3532
5447.00,0.3531
5446.00,0.3530
5445.00,0.3531
5444.00,0.3530
5443.00,0.3525
5442.00,0.3517
5441.00,0.3510
5440.00,0.3506
5439.00,0.3505
5438.00,0.3505
5437.00,0.3506
5436.00,0.3507
5435.00,0.3508
5434.00,0.3509
5433.00,0.3510
5432.00,0.3512
5431.00,0.3514
5430.00,0.3513
5429.00,0.3508
5428.00,0.3499
5427.00,0.3487
5426.00,0.3478
5425.00,0.3472
5424.00,0.3469
5423.00,0.3469
5422.00,0.3469
5421.00,0.3468
5420.00,0.3469
5419.00,0.3474
5418.00,0.3483
5417.00,0.3493
5416.00,0.3502
5415.00,0.3510
5414.00,0.3514
5413.00,0.3513
5412.00,0.3506
5411.00,0.3495
5410.00,0.3484
5409.00,0.3475
5408.00,0.3468
5407.00,0.3464
5406.00,0.3461
5405.00,0.3460
5404.00,0.3458
5403.00,0.3457
5402.00,0.3456
5401.00,0.3457
5400.00,0.3460
5399.00,0.3467
5398.00,0.3474
5397.00,0.3481
5396.00,0.3483
5395.00,0.3479
5394.00,0.3472
5393.00,0.3464
5392.00,0.3458
5391.00,0.3456
5390.00,0.3459
5389.00,0.3466
5388.00,0.3472
5387.00,0.3475
5386.00,0.3473
5385.00,0.3467
5384.00,0.3460
5383.00,0.3455
5382.00,0.3456
5381.00,0.3462
5380.00,0.3471
5379.00,0.3480
5378.00,0.3484
5377.00,0.3485
5376.00,0.3480
5375.00,0.3471
5374.00,0.3462
5373.00,0.3456
5372.00,0.3453
5371.00,0.3453
5370.00,0.3454
5369.00,0.3458
5368.00,0.3463
5367.00,0.3469
5366.00,0.3473
5365.00,0.3474
5364.00,0.3474
5363.00,0.3471
5362.00,0.3468
5361.00,0.3465
5360.00,0.3465
5359.00,0.3471
5358.00,0.3483
5357.00,0.3498
5356.00,0.3511
5355.00,0.3517
5354.00,0.3517
5353.00,0.3513
5352.00,0.3508
5351.00,0.3504
5350.00,0.3505
5349.00,0.3515
5348.00,0.3529
5347.00,0.3540
5346.00,0.3542
5345.00,0.3538
5344.00,0.3534
5343.00,0.3533
5342.00,0.3536
5341.00,0.3541
5340.00,0.3548
5339.00,0.3552
5338.00,0.3551
5337.00,0.3545
5336.00,0.3538
5335.00,0.3534
5334.00,0.3535
5333.00,0.3539
5332.00,0.3546
5331.00,0.3553
5330.00,0.3559
5329.00,0.3561
5328.00,0.3562
5327.00,0.3562
5326.00,0.3560
5325.00,0.3558
5324.00,0.3558
5323.00,0.3561
5322.00,0.3566
5321.00,0.3573
5320.00,0.3580
5319.00,0.3587
5318.00,0.3593
5317.00,0.3599
5316.00,0.3603
5315.00,0.3608
5314.00,0.3612
5313.00,0.3619
5312.00,0.3629
5311.00,0.3641
5310.00,0.3652
5309.00,0.3661
5308.00,0.3668
5307.00,0.3672
5306.00,0.3676
5305.00,0.3680
5304.00,0.3686
5303.00,0.3695
5302.00,0.3705
5301.00,0.3714
5300.00,0.3721
5299.00,0.3728
5298.00,0.3735
5297.00,0.3743
5296.00,0.3754
5295.00,0.3767
5294.00,0.3784
5293.00,0.3800
5292.00,0.3814
5291.00,0.3825
5290.00,0.3835
5289.00,0.3844
5288.00,0.3853
5287.00,0.3864
5286.00,0.3876
5285.00,0.3890
5284.00,0.3904
5283.00,0.3917
5282.00,0.3929
5281.00,0.3940
5280.00,0.3953
5279.00,0.3967
5278.00,0.3980
5277.00,0.3992
5276.00,0.4007
5275.00,0.4023
5274.00,0.4041
5273.00,0.4061
5272.00,0.4080
5271.00,0.4100
5270.00,0.4120
5269.00,0.4141
5268.00,0.4163
5267.00,0.4185
5266.00,0.4206
5265.00,0.4226
5264.00,0.4242
5263.00,0.4253
5262.00,0.4262
5261.00,0.4271
5260.00,0.4285
5259.00,0.4305
5258.00,0.4328
5257.00,0.4350
5256.00,0.4370
5255.00,0.4387
5254.00,0.4402
5253.00,0.4418
5252.00,0.4437
5251.00,0.4461
5250.00,0.4486
5249.00,0.4512
5248.00,0.4533
5247.00,0.4549
5246.00,0.4559
5245.00,0.4567
5244.00,0.4575
5243.00,0.4586
5242.00,0.4597
5241.00,0.4609
5240.00,0.4623
5239.00,0.4640
5238.00,0.4658
5237.00,0.4676
5236.00,0.4694
5235.00,0.4713
5234.00,0.4732
5233.00,0.4749
5232.00,0.4763
5231.00,0.4778
5230.00,0.4794
5229.00,0.4811
5228.00,0.4829
5227.00,0.4845
5226.00,0.4858
5225.00,0.4867
5224.00,0.4873
5223.00,0.4879
5222.00,0.4889
5221.00,0.4902
5220.00,0.4916
5219.00,0.4929
5218.00,0.4939
5217.00,0.4946
5216.00,0.4953
5215.00,0.4962
5214.00,0.4974
5213.00,0.4990
5212.00,0.5009
5211.00,0.5031
5210.00,0.5052
5209.00,0.5070
5208.00,0.5080
5207.00,0.5081
5206.00,0.5078
5205.00,0.5074
5204.00,0.5073
5203.00,0.5076
5202.00,0.5084
5201.00,0.5097
5200.00,0.5110
5199.00,0.5121
5198.00,0.5128
5197.00,0.5132
5196.00,0.5134
5195.00,0.5137
5194.00,0.5140
5193.00,0.5147
5192.00,0.5155
5191.00,0.5163
5190.00,0.5171
5189.00,0.5179
5188.00,0.5185
5187.00,0.5190
5186.00,0.5193
5185.00,0.5195
5184.00,0.5196
5183.00,0.5196
5182.00,0.5197
5181.00,0.5199
5180.00,0.5202
5179.00,0.5205
5178.00,0.5206
5177.00,0.5206
5176.00,0.5207
5175.00,0.5209
5174.00,0.5212
5173.00,0.5214
5172.00,0.5215
5171.00,0.5215
5170.00,0.5214
5169.00,0.5214
5168.00,0.5214
5167.00,0.5217
5166.00,0.5219
5165.00,0.5220
5164.00,0.5219
5163.00,0.5217
5162.00,0.5214
5161.00,0.5212
5160.00,0.5212
5159.00,0.5212
5158.00,0.5212
5157.00,0.5210
5156.00,0.5207
5155.00,0.5203
5154.00,0.5199
5153.00,0.5195
5152.00,0.5191
5151.00,0.5188
5150.00,0.5184
5149.00,0.5180
5148.00,0.5177
5147.00,0.5174
5146.00,0.5172
5145.00,0.5171
5144.00,0.5169
5143.00,0.5166
5142.00,0.5161
5141.00,0.5156
5140.00,0.5150
5139.00,0.5145
5138.00,0.5141
5137.00,0.5137
5136.00,0.5134
5135.00,0.5130
5134.00,0.5126
5133.00,0.5121
5132.00,0.5116
5131.00,0.5111
5130.00,0.5106
5129.00,0.5101
5128.00,0.5096
5127.00,0.5091
5126.00,0.5087
5125.00,0.5082
5124.00,0.5079
5123.00,0.5075
5122.00,0.5071
5121.00,0.5066
5120.00,0.5062
5119.00,0.5057
5118.00,0.5052
5117.00,0.5047
5116.00,0.5042
5115.00,0.5038
5114.00,0.5033
5113.00,0.5028
5112.00,0.5023
5111.00,0.5018
5110.00,0.5012
5109.00,0.5008
5108.00,0.5003
5107.00,0.4999
5106.00,0.4994
5105.00,0.4989
5104.00,0.4984
5103.00,0.4979
5102.00,0.4974
5101.00,0.4970
5100.00,0.4965
5099.00,0.4961
5098.00,0.4957
5097.00,0.4953
5096.00,0.4948
5095.00,0.4943
5094.00,0.4938
5093.00,0.4933
5092.00,0.4929
5091.00,0.4925
5090.00,0.4920
5089.00,0.4916
5088.00,0.4912
5087.00,0.4908
5086.00,0.4904
5085.00,0.4900
5084.00,0.4896
5083.00,0.4892
5082.00,0.4889
5081.00,0.4885
5080.00,0.4881
5079.00,0.4877
5078.00,0.4872
5077.00,0.4868
5076.00,0.4865
5075.00,0.4861
5074.00,0.4858
5073.00,0.4854
5072.00,0.4850
5071.00,0.4846
5070.00,0.4842
5069.00,0.4837
5068.00,0.4833
5067.00,0.4830
5066.00,0.4826
5065.00,0.4822
5064.00,0.4818
5063.00,0.4814
5062.00,0.4810
5061.00,0.4806
5060.00,0.4802
5059.00,0.4798
5058.00,0.4793
5057.00,0.4789
5056.00,0.4784
5055.00,0.4780
5054.00,0.4775
5053.00,0.4771
5052.00,0.4767
5051.00,0.4762
5050.00,0.4758
5049.00,0.4754
5048.00,0.4749
5047.00,0.4744
5046.00,0.4739
5045.00,0.4734
5044.00,0.4729
5043.00,0.4723
5042.00,0.4719
5041.00,0.4714
5040.00,0.4709
5039.00,0.4704
5038.00,0.4699
5037.00,0.4694
5036.00,0.4690
5035.00,0.4685
5034.00,0.4681
5033.00,0.4676
5032.00,0.4671
5031.00,0.4666
5030.00,0.4660
5029.00,0.4655
5028.00,0.4650
5027.00,0.4645
5026.00,0.4640
5025.00,0.4635
5024.00,0.4630
5023.00,0.4625
5022.00,0.4620
5021.00,0.4615
5020.00,0.4611
5019.00,0.4606
5018.00,0.4602
5017.00,0.4597
5016.00,0.4593
5015.00,0.4588
5014.00,0.4584
5013.00,0.4580
5012.00,0.4576
5011.00,0.4572
5010.00,0.4568
5009.00,0.4564
5008.00,0.4560
5007.00,0.4556
5006.00,0.4551
5005.00,0.4547
5004.00,0.4543
5003.00,0.4540
5002.00,0.4536
5001.00,0.4533
5000.00,0.4530
4999.00,0.4528
4998.00,0.4526
4997.00,0.4523
4996.00,0.4520
4995.00,0.4517
4994.00,0.4514
4993.00,0.4511
4992.00,0.4509
4991.00,0.4506
4990.00,0.4504
4989.00,0.4502
4988.00,0.4501
4987.00,0.4499
4986.00,0.4497
4985.00,0.4496
4984.00,0.4494
4983.00,0.4493
4982.00,0.4492
4981.00,0.4491
4980.00,0.4490
4979.00,0.4489
4978.00,0.4489
4977.00,0.4488
4976.00,0.4488
4975.00,0.4487
4974.00,0.4487
4973.00,0.4487
4972.00,0.4487
4971.00,0.4488
4970.00,0.4489
4969.00,0.4491
4968.00,0.4492
4967.00,0.4493
4966.00,0.4494
4965.00,0.4495
4964.00,0.4496
4963.00,0.4497
4962.00,0.4499
4961.00,0.4501
4960.00,0.4504
4959.00,0.4506
4958.00,0.4508
4957.00,0.4511
4956.00,0.4513
4955.00,0.4516
4954.00,0.4518
4953.00,0.4521
4952.00,0.4524
4951.00,0.4528
4950.00,0.4531
4949.00,0.4534
4948.00,0.4538
4947.00,0.4542
4946.00,0.4546
4945.00,0.4550
4944.00,0.4554
4943.00,0.4558
4942.00,0.4562
4941.00,0.4566
4940.00,0.4570
4939.00,0.4575
4938.00,0.4581
4937.00,0.4586
4936.00,0.4591
4935.00,0.4596
4934.00,0.4601
4933.00,0.4606
4932.00,0.4611
4931.00,0.4617
4930.00,0.4623
4929.00,0.4628
4928.00,0.4633
4927.00,0.4638
4926.00,0.4644
4925.00,0.4650
4924.00,0.4656
4923.00,0.4662
4922.00,0.4668
4921.00,0.4674
4920.00,0.4681
4919.00,0.4688
4918.00,0.4694
4917.00,0.4701
4916.00,0.4708
4915.00,0.4715
4914.00,0.4722
4913.00,0.4729
4912.00,0.4737
4911.00,0.4744
4910.00,0.4751
4909.00,0.4759
4908.00,0.4766
4907.00,0.4774
4906.00,0.4781
4905.00,0.4789
4904.00,0.4796
4903.00,0.4804
4902.00,0.4812
4901.00,0.4819
4900.00,0.4827
4899.00,0.4835
4898.00,0.4842
4897.00,0.4850
4896.00,0.4858
4895.00,0.4866
4894.00,0.4874
4893.00,0.4882
4892.00,0.4890
4891.00,0.4898
4890.00,0.4905
4889.00,0.4913
4888.00,0.4920
4887.00,0.4928
4886.00,0.4936
4885.00,0.4944
4884.00,0.4952
4883.00,0.4960
4882.00,0.4968
4881.00,0.4976
4880.00,0.4984
4879.00,0.4992
4878.00,0.5000
4877.00,0.5009
4876.00,0.5017
4875.00,0.5025
4874.00,0.5034
4873.00,0.5041
4872.00,0.5049
4871.00,0.5056
4870.00,0.5063
4869.00,0.5070
4868.00,0.5078
4867.00,0.5086
4866.00,0.5094
4865.00,0.5102
4864.00,0.5110
4863.00,0.5118
4862.00,0.5125
4861.00,0.5133
4860.00,0.5140
4859.00,0.5148
4858.00,0.5156
4857.00,0.5163
4856.00,0.5170
4855.00,0.5177
4854.00,0.5184
4853.00,0.5190
4852.00,0.5197
4851.00,0.5204
4850.00,0.5211
4849.00,0.5218
4848.00,0.5225
4847.00,0.5232
4846.00,0.5240
4845.00,0.5247
4844.00,0.5254
4843.00,0.5261
4842.00,0.5267
4841.00,0.5273
4840.00,0.5279
4839.00,0.5286
4838.00,0.5292
4837.00,0.5298
4836.00,0.5304
4835.00,0.5310
4834.00,0.5317
4833.00,0.5323
4832.00,0.5329
4831.00,0.5335
4830.00,0.5341
4829.00,0.5347
4828.00,0.5353
4827.00,0.5359
4826.00,0.5365
4825.00,0.5371
4824.00,0.5376
4823.00,0.5381
4822.00,0.5386
4821.00,0.5391
4820.00,0.5396
4819.00,0.5401
4818.00,0.5406
4817.00,0.5411
4816.00,0.5417
4815.00,0.5422
4814.00,0.5427
4813.00,0.5432
4812.00,0.5437
4811.00,0.5441
4810.00,0.5445
4809.00,0.5449
4808.00,0.5453
4807.00,0.5457
4806.00,0.5462
4805.00,0.5466
4804.00,0.5470
4803.00,0.5474
4802.00,0.5478
4801.00,0.5482
4800.00,0.5486
4799.00,0.5490
4798.00,0.5493
4797.00,0.5496
4796.00,0.5499
4795.00,0.5502
4794.00,0.5505
4793.00,0.5509
4792.00,0.5512
4791.00,0.5515
4790.00,0.5519
4789.00,0.5522
4788.00,0.5525
4787.00,0.5528
4786.00,0.5530
4785.00,0.5533
4784.00,0.5536
4783.00,0.5539
4782.00,0.5542
4781.00,0.5545
4780.00,0.5547
4779.00,0.5549
4778.00,0.5551
4777.00,0.5553
4776.00,0.5555
4775.00,0.5558
4774.00,0.5560
4773.00,0.5562
4772.00,0.5564
4771.00,0.5566
4770.00,0.5568
4769.00,0.5570
4768.00,0.5572
4767.00,0.5574
4766.00,0.5575
4765.00,0.5576
4764.00,0.5576
4763.00,0.5577
4762.00,0.5578
4761.00,0.5579
4760.00,0.5580
4759.00,0.5581
4758.00,0.5582
4757.00,0.5583
4756.00,0.5584
4755.00,0.5584
4754.00,0.5585
4753.00,0.5585
4752.00,0.5585
4751.00,0.5586
4750.00,0.5586
4749.00,0.5586
4748.00,0.5586
4747.00,0.5586
4746.00,0.5586
4745.00,0.5586
4744.00,0.5585
4743.00,0.5585
4742.00,0.5584
4741.00,0.5584
4740.00,0.5584
4739.00,0.5583
4738.00,0.5582
4737.00,0.5581
4736.00,0.5579
4735.00,0.5578
4734.00,0.5577
4733.00,0.5576
4732.00,0.5575
4731.00,0.5573
4730.00,0.5572
4729.00,0.5570
4728.00,0.5568
4727.00,0.5566
4726.00,0.5564
4725.00,0.5563
4724.00,0.5561
4723.00,0.5559
4722.00,0.5558
4721.00,0.5556
4720.00,0.5554
4719.00,0.5552
4718.00,0.5550
4717.00,0.5547
4716.00,0.5544
4715.00,0.5541
4714.00,0.5538
4713.00,0.5535
4712.00,0.5532
4711.00,0.5530
4710.00,0.5527
4709.00,0.5524
4708.00,0.5522
4707.00,0.5520
4706.00,0.5517
4705.00,0.5514
4704.00,0.5511
4703.00,0.5508
4702.00,0.5505
4701.00,0.5502
4700.00,0.5499
4699.00,0.5496
4698.00,0.5494
4697.00,0.5491
4696.00,0.5488
4695.00,0.5486
4694.00,0.5483
4693.00,0.5480
4692.00,0.5477
4691.00,0.5474
4690.00,0.5471
4689.00,0.5468
4688.00,0.5464
4687.00,0.5460
4686.00,0.5457
4685.00,0.5454
4684.00,0.5452
4683.00,0.5450
4682.00,0.5447
4681.00,0.5444
4680.00,0.5441
4679.00,0.5437
4678.00,0.5433
4677.00,0.5430
4676.00,0.5427
4675.00,0.5424
4674.00,0.5422
4673.00,0.5419
4672.00,0.5415
4671.00,0.5412
4670.00,0.5408
4669.00,0.5405
4668.00,0.5401
4667.00,0.5398
4666.00,0.5395
4665.00,0.5392
4664.00,0.5389
4663.00,0.5386
4662.00,0.5383
4661.00,0.5380
4660.00,0.5377
4659.00,0.5374
4658.00,0.5371
4657.00,0.5367
4656.00,0.5365
4655.00,0.5362
4654.00,0.5359
4653.00,0.5357
4652.00,0.5354
4651.00,0.5351
4650.00,0.5347
4649.00,0.5344
4648.00,0.5341
4647.00,0.5338
4646.00,0.5335
4645.00,0.5332
4644.00,0.5330
4643.00,0.5327
4642.00,0.5325
4641.00,0.5322
4640.00,0.5319
4639.00,0.5316
4638.00,0.5314
4637.00,0.5311
4636.00,0.5309
4635.00,0.5307
4634.00,0.5304
4633.00,0.5301
4632.00,0.5298
4631.00,0.5296
4630.00,0.5294
4629.00,0.5292
4628.00,0.5290
4627.00,0.5288
4626.00,0.5285
4625.00,0.5282
4624.00,0.5279
4623.00,0.5277
4622.00,0.5275
4621.00,0.5273
4620.00,0.5271
4619.00,0.5269
4618.00,0.5268
4617.00,0.5266
4616.00,0.5264
4615.00,0.5262
4614.00,0.5260
4613.00,0.5258
4612.00,0.5256
4611.00,0.5254
4610.00,0.5252
4609.00,0.5250
4608.00,0.5249
4607.00,0.5247
4606.00,0.5246
4605.00,0.5244
4604.00,0.5242
4603.00,0.5240
4602.00,0.5239
4601.00,0.5237
4600.00,0.5235
4599.00,0.5234
4598.00,0.5232
4597.00,0.5230
4596.00,0.5229
4595.00,0.5227
4594.00,0.5226
4593.00,0.5225
4592.00,0.5223
4591.00,0.5222
4590.00,0.5220
4589.00,0.5219
4588.00,0.5217
4587.00,0.5216
4586.00,0.5215
4585.00,0.5213
4584.00,0.5212
4583.00,0.5210
4582.00,0.5209
4581.00,0.5207
4580.00,0.5206
4579.00,0.5205
4578.00,0.5204
4577.00,0.5202
4576.00,0.5201
4575.00,0.5199
4574.00,0.5197
4573.00,0.5196
4572.00,0.5194
4571.00,0.5193
4570.00,0.5192
4569.00,0.5191
4568.00,0.5189
4567.00,0.5187
4566.00,0.5185
4565.00,0.5183
4564.00,0.5181
4563.00,0.5180
4562.00,0.5178
4561.00,0.5176
4560.00,0.5174
4559.00,0.5172
4558.00,0.5170
4557.00,0.5168
4556.00,0.5166
4555.00,0.5164
4554.00,0.5162
4553.00,0.5159
4552.00,0.5157
4551.00,0.5155
4550.00,0.5153
4549.00,0.5150
4548.00,0.5148
4547.00,0.5146
4546.00,0.5144
4545.00,0.5142
4544.00,0.5140
4543.00,0.5138
4542.00,0.5135
4541.00,0.5133
4540.00,0.5130
4539.00,0.5128
4538.00,0.5125
4537.00,0.5123
4536.00,0.5120
4535.00,0.5118
4534.00,0.5115
4533.00,0.5112
4532.00,0.5110
4531.00,0.5107
4530.00,0.5104
4529.00,0.5101
4528.00,0.5098
4527.00,0.5095
4526.00,0.5092
4525.00,0.5089
4524.00,0.5086
4523.00,0.5083
4522.00,0.5081
4521.00,0.5078
4520.00,0.5074
4519.00,0.5071
4518.00,0.5068
4517.00,0.5065
4516.00,0.5063
4515.00,0.5060
4514.00,0.5057
4513.00,0.5054
4512.00,0.5052
4511.00,0.5049
4510.00,0.5046
4509.00,0.5044
4508.00,0.5041
4507.00,0.5038
4506.00,0.5036
4505.00,0.5034
4504.00,0.5032
4503.00,0.5030
4502.00,0.5028
4501.00,0.5026
4500.00,0.5024
4499.00,0.5023
4498.00,0.5021
4497.00,0.5019
4496.00,0.5018
4495.00,0.5017
4494.00,0.5015
4493.00,0.5014
4492.00,0.5014
4491.00,0.5013
4490.00,0.5012
4489.00,0.5012
4488.00,0.5011
4487.00,0.5011
4486.00,0.5011
4485.00,0.5012
4484.00,0.5013
4483.00,0.5013
4482.00,0.5014
4481.00,0.5015
4480.00,0.5016
4479.00,0.5018
4478.00,0.5020
4477.00,0.5022
4476.00,0.5024
4475.00,0.5026
4474.00,0.5028
4473.00,0.5031
4472.00,0.5034
4471.00,0.5038
4470.00,0.5042
4469.00,0.5046
4468.00,0.5050
4467.00,0.5054
4466.00,0.5058
4465.00,0.5062
4464.00,0.5067
4463.00,0.5073
4462.00,0.5078
4461.00,0.5083
4460.00,0.5088
4459.00,0.5093
4458.00,0.5097
4457.00,0.5102
4456.00,0.5107
4455.00,0.5113
4454.00,0.5119
4453.00,0.5125
4452.00,0.5131
4451.00,0.5136
4450.00,0.5142
4449.00,0.5148
4448.00,0.5153
4447.00,0.5159
4446.00,0.5166
4445.00,0.5172
4444.00,0.5178
4443.00,0.5184
4442.00,0.5191
4441.00,0.5197
4440.00,0.5203
4439.00,0.5210
4438.00,0.5216
4437.00,0.5223
4436.00,0.5230
4435.00,0.5238
4434.00,0.5245
4433.00,0.5253
4432.00,0.5261
4431.00,0.5269
4430.00,0.5277
4429.00,0.5285
4428.00,0.5293
4427.00,0.5301
4426.00,0.5309
4425.00,0.5317
4424.00,0.5325
4423.00,0.5334
4422.00,0.5342
4421.00,0.5350
4420.00,0.5358
4419.00,0.5365
4418.00,0.5373
4417.00,0.5380
4416.00,0.5387
4415.00,0.5395
4414.00,0.5402
4413.00,0.5408
4412.00,0.5415
4411.00,0.5421
4410.00,0.5427
4409.00,0.5433
4408.00,0.5438
4407.00,0.5443
4406.00,0.5448
4405.00,0.5453
4404.00,0.5458
4403.00,0.5463
4402.00,0.5468
4401.00,0.5472
4400.00,0.5476
4399.00,0.5479
4398.00,0.5481
4397.00,0.5483
4396.00,0.5485
4395.00,0.5487
4394.00,0.5488
4393.00,0.5489
4392.00,0.5490
4391.00,0.5490
4390.00,0.5490
4389.00,0.5490
4388.00,0.5490
4387.00,0.5489
4386.00,0.5488
4385.00,0.5487
4384.00,0.5485
4383.00,0.5483
4382.00,0.5481
4381.00,0.5478
4380.00,0.5476
4379.00,0.5473
4378.00,0.5470
4377.00,0.5468
4376.00,0.5465
4375.00,0.5463
4374.00,0.5460
4373.00,0.5457
4372.00,0.5453
4371.00,0.5450
4370.00,0.5446
4369.00,0.5443
4368.00,0.5440
4367.00,0.5438
4366.00,0.5436
4365.00,0.5434
4364.00,0.5432
4363.00,0.5430
4362.00,0.5429
4361.00,0.5428
4360.00,0.5427
4359.00,0.5427
4358.00,0.5426
4357.00,0.5425
4356.00,0.5425
4355.00,0.5425
4354.00,0.5425
4353.00,0.5426
4352.00,0.5428
4351.00,0.5429
4350.00,0.5430
4349.00,0.5432
4348.00,0.5433
4347.00,0.5435
4346.00,0.5437
4345.00,0.5440
4344.00,0.5442
4343.00,0.5445
4342.00,0.5448
4341.00,0.5451
4340.00,0.5454
4339.00,0.5458
4338.00,0.5462
4337.00,0.5466
4336.00,0.5469
4335.00,0.5473
4334.00,0.5476
4333.00,0.5479
4332.00,0.5483
4331.00,0.5486
4330.00,0.5490
4329.00,0.5494
4328.00,0.5497
4327.00,0.5501
4326.00,0.5504
4325.00,0.5507
4324.00,0.5510
4323.00,0.5514
4322.00,0.5518
4321.00,0.5522
4320.00,0.5526
4319.00,0.5529
4318.00,0.5532
4317.00,0.5534
4316.00,0.5537
4315.00,0.5540
4314.00,0.5542
4313.00,0.5545
4312.00,0.5547
4311.00,0.5550
4310.00,0.5553
4309.00,0.5555
4308.00,0.5558
4307.00,0.5561
4306.00,0.5564
4305.00,0.5566
4304.00,0.5569
4303.00,0.5571
4302.00,0.5572
4301.00,0.5573
4300.00,0.5574
4299.00,0.5576
4298.00,0.5577
4297.00,0.5578
4296.00,0.5579
4295.00,0.5580
4294.00,0.5580
4293.00,0.5580
4292.00,0.5580
4291.00,0.5579
4290.00,0.5579
4289.00,0.5578
4288.00,0.5577
4287.00,0.5577
4286.00,0.5577
4285.00,0.5577
4284.00,0.5576
4283.00,0.5575
4282.00,0.5574
4281.00,0.5573
4280.00,0.5571
4279.00,0.5570
4278.00,0.5568
4277.00,0.5566
4276.00,0.5564
4275.00,0.5563
4274.00,0.5563
4273.00,0.5562
4272.00,0.5562
4271.00,0.5562
4270.00,0.5561
4269.00,0.5561
4268.00,0.5560
4267.00,0.5560
4266.00,0.5561
4265.00,0.5561
4264.00,0.5562
4263.00,0.5562
4262.00,0.5562
4261.00,0.5562
4260.00,0.5562
4259.00,0.5562
4258.00,0.5562
4257.00,0.5562
4256.00,0.5561
4255.00,0.5561
4254.00,0.5561
4253.00,0.5562
4252.00,0.5562
4251.00,0.5563
4250.00,0.5564
4249.00,0.5564
4248.00,0.5564
4247.00,0.5564
4246.00,0.5563
4245.00,0.5563
4244.00,0.5563
4243.00,0.5564
4242.00,0.5564
4241.00,0.5565
4240.00,0.5566
4239.00,0.5567
4238.00,0.5567
4237.00,0.5568
4236.00,0.5568
4235.00,0.5567
4234.00,0.5568
4233.00,0.5568
4232.00,0.5569
4231.00,0.5570
4230.00,0.5570
4229.00,0.5571
4228.00,0.5572
4227.00,0.5573
4226.00,0.5574
4225.00,0.5575
4224.00,0.5575
4223.00,0.5574
4222.00,0.5573
4221.00,0.5573
4220.00,0.5573
4219.00,0.5573
4218.00,0.5573
4217.00,0.5573
4216.00,0.5572
4215.00,0.5571
4214.00,0.5571
4213.00,0.5571
4212.00,0.5571
4211.00,0.5571
4210.00,0.5571
4209.00,0.5571
4208.00,0.5571
4207.00,0.5570
4206.00,0.5570
4205.00,0.5570
4204.00,0.5570
4203.00,0.5570
4202.00,0.5570
4201.00,0.5570
4200.00,0.5570
4199.00,0.5570
4198.00,0.5571
4197.00,0.5572
4196.00,0.5573
4195.00,0.5573
4194.00,0.5574
4193.00,0.5575
4192.00,0.5576
4191.00,0.5577
4190.00,0.5579
4189.00,0.5581
4188.00,0.5583
4187.00,0.5585
4186.00,0.5588
4185.00,0.5590
4184.00,0.5593
4183.00,0.5596
4182.00,0.5598
4181.00,0.5601
4180.00,0.5603
4179.00,0.5606
4178.00,0.5609
4177.00,0.5612
4176.00,0.5615
4175.00,0.5618
4174.00,0.5621
4173.00,0.5624
4172.00,0.5627
4171.00,0.5631
4170.00,0.5635
4169.00,0.5639
4168.00,0.5644
4167.00,0.5649
4166.00,0.5654
4165.00,0.5659
4164.00,0.5664
4163.00,0.5669
4162.00,0.5674
4161.00,0.5678
4160.00,0.5683
4159.00,0.5689
4158.00,0.5695
4157.00,0.5702
4156.00,0.5708
4155.00,0.5715
4154.00,0.5721
4153.00,0.5728
4152.00,0.5734
4151.00,0.5741
4150.00,0.5748
4149.00,0.5756
4148.00,0.5763
4147.00,0.5771
4146.00,0.5778
4145.00,0.5785
4144.00,0.5793
4143.00,0.5801
4142.00,0.5809
4141.00,0.5817
4140.00,0.5825
4139.00,0.5833
4138.00,0.5842
4137.00,0.5851
4136.00,0.5859
4135.00,0.5868
4134.00,0.5876
4133.00,0.5885
4132.00,0.5894
4131.00,0.5903
4130.00,0.5913
4129.00,0.5922
4128.00,0.5932
4127.00,0.5942
4126.00,0.5951
4125.00,0.5961
4124.00,0.5971
4123.00,0.5980
4122.00,0.5990
4121.00,0.6000
4120.00,0.6010
4119.00,0.6020
4118.00,0.6031
4117.00,0.6042
4116.00,0.6053
4115.00,0.6064
4114.00,0.6074
4113.00,0.6085
4112.00,0.6096
4111.00,0.6108
4110.00,0.6120
4109.00,0.6132
4108.00,0.6144
4107.00,0.6156
4106.00,0.6167
4105.00,0.6178
4104.00,0.6190
4103.00,0.6201
4102.00,0.6213
4101.00,0.6225
4100.00,0.6237
4099.00,0.6249
4098.00,0.6262
4097.00,0.6274
4096.00,0.6287
4095.00,0.6299
4094.00,0.6312
4093.00,0.6326
4092.00,0.6339
4091.00,0.6353
4090.00,0.6367
4089.00,0.6380
4088.00,0.6392
4087.00,0.6405
4086.00,0.6417
4085.00,0.6430
4084.00,0.6444
4083.00,0.6458
4082.00,0.6472
4081.00,0.6485
4080.00,0.6498
4079.00,0.6511
4078.00,0.6524
4077.00,0.6537
4076.00,0.6551
4075.00,0.6565
4074.00,0.6578
4073.00,0.6592
4072.00,0.6606
4071.00,0.6620
4070.00,0.6635
4069.00,0.6650
4068.00,0.6665
4067.00,0.6679
4066.00,0.6693
4065.00,0.6708
4064.00,0.6722
4063.00,0.6736
4062.00,0.6750
4061.00,0.6764
4060.00,0.6777
4059.00,0.6791
4058.00,0.6804
4057.00,0.6817
4056.00,0.6831
4055.00,0.6846
4054.00,0.6859
4053.00,0.6873
4052.00,0.6886
4051.00,0.6899
4050.00,0.6912
4049.00,0.6925
4048.00,0.6940
4047.00,0.6954
4046.00,0.6969
4045.00,0.6981
4044.00,0.6993
4043.00,0.7003
4042.00,0.7014
4041.00,0.7025
4040.00,0.7037
4039.00,0.7049
4038.00,0.7060
4037.00,0.7070
4036.00,0.7081
4035.00,0.7092
4034.00,0.7104
4033.00,0.7115
4032.00,0.7126
4031.00,0.7136
4030.00,0.7145
4029.00,0.7155
4028.00,0.7164
4027.00,0.7172
4026.00,0.7179
4025.00,0.7185
4024.00,0.7190
4023.00,0.7197
4022.00,0.7204
4021.00,0.7211
4020.00,0.7216
4019.00,0.7220
4018.00,0.7223
4017.00,0.7226
4016.00,0.7230
4015.00,0.7233
4014.00,0.7237
4013.00,0.7241
4012.00,0.7244
4011.00,0.7247
4010.00,0.7249
4009.00,0.7248
4008.00,0.7247
4007.00,0.7245
4006.00,0.7243
4005.00,0.7242
4004.00,0.7242
4003.00,0.7242
4002.00,0.7241
4001.00,0.7240
4000.00,0.7239
   㕕侱�
♼⠨⚚