Created As ASCII File,样品 074 用户 Administrator 日期 星期三, 四月 21 2021
cm-1,A
12000.00,0.1845
11999.00,0.1843
11998.00,0.1843
11997.00,0.1845
11996.00,0.1846
11995.00,0.1845
11994.00,0.1841
11993.00,0.1836
11992.00,0.1833
11991.00,0.1832
11990.00,0.1834
11989.00,0.1837
11988.00,0.1841
11987.00,0.1843
11986.00,0.1844
11985.00,0.1845
11984.00,0.1846
11983.00,0.1848
11982.00,0.1851
11981.00,0.1853
11980.00,0.1854
11979.00,0.1854
11978.00,0.1853
11977.00,0.1851
11976.00,0.1849
11975.00,0.1847
11974.00,0.1846
11973.00,0.1845
11972.00,0.1844
11971.00,0.1843
11970.00,0.1841
11969.00,0.1840
11968.00,0.1840
11967.00,0.1840
11966.00,0.1841
11965.00,0.1842
11964.00,0.1842
11963.00,0.1843
11962.00,0.1842
11961.00,0.1841
11960.00,0.1840
11959.00,0.1838
11958.00,0.1837
11957.00,0.1836
11956.00,0.1836
11955.00,0.1836
11954.00,0.1837
11953.00,0.1837
11952.00,0.1837
11951.00,0.1836
11950.00,0.1835
11949.00,0.1834
11948.00,0.1835
11947.00,0.1837
11946.00,0.1841
11945.00,0.1845
11944.00,0.1847
11943.00,0.1846
11942.00,0.1844
11941.00,0.1840
11940.00,0.1836
11939.00,0.1834
11938.00,0.1833
11937.00,0.1834
11936.00,0.1836
11935.00,0.1839
11934.00,0.1841
11933.00,0.1840
11932.00,0.1837
11931.00,0.1834
11930.00,0.1831
11929.00,0.1831
11928.00,0.1836
11927.00,0.1843
11926.00,0.1852
11925.00,0.1858
11924.00,0.1862
11923.00,0.1862
11922.00,0.1861
11921.00,0.1859
11920.00,0.1858
11919.00,0.1858
11918.00,0.1857
11917.00,0.1855
11916.00,0.1852
11915.00,0.1848
11914.00,0.1844
11913.00,0.1843
11912.00,0.1842
11911.00,0.1842
11910.00,0.1841
11909.00,0.1839
11908.00,0.1835
11907.00,0.1833
11906.00,0.1834
11905.00,0.1836
11904.00,0.1840
11903.00,0.1843
11902.00,0.1844
11901.00,0.1844
11900.00,0.1842
11899.00,0.1841
11898.00,0.1840
11897.00,0.1840
11896.00,0.1839
11895.00,0.1839
11894.00,0.1840
11893.00,0.1842
11892.00,0.1845
11891.00,0.1849
11890.00,0.1852
11889.00,0.1853
11888.00,0.1850
11887.00,0.1845
11886.00,0.1839
11885.00,0.1836
11884.00,0.1836
11883.00,0.1839
11882.00,0.1842
11881.00,0.1843
11880.00,0.1842
11879.00,0.1839
11878.00,0.1836
11877.00,0.1835
11876.00,0.1836
11875.00,0.1839
11874.00,0.1843
11873.00,0.1846
11872.00,0.1848
11871.00,0.1847
11870.00,0.1847
11869.00,0.1846
11868.00,0.1847
11867.00,0.1849
11866.00,0.1852
11865.00,0.1854
11864.00,0.1854
11863.00,0.1853
11862.00,0.1850
11861.00,0.1848
11860.00,0.1846
11859.00,0.1846
11858.00,0.1847
11857.00,0.1848
11856.00,0.1849
11855.00,0.1849
11854.00,0.1848
11853.00,0.1848
11852.00,0.1848
11851.00,0.1850
11850.00,0.1852
11849.00,0.1854
11848.00,0.1855
11847.00,0.1854
11846.00,0.1852
11845.00,0.1849
11844.00,0.1846
11843.00,0.1843
11842.00,0.1841
11841.00,0.1841
11840.00,0.1842
11839.00,0.1843
11838.00,0.1844
11837.00,0.1844
11836.00,0.1842
11835.00,0.1841
11834.00,0.1841
11833.00,0.1843
11832.00,0.1847
11831.00,0.1850
11830.00,0.1852
11829.00,0.1850
11828.00,0.1847
11827.00,0.1843
11826.00,0.1841
11825.00,0.1842
11824.00,0.1844
11823.00,0.1845
11822.00,0.1845
11821.00,0.1843
11820.00,0.1841
11819.00,0.1840
11818.00,0.1841
11817.00,0.1844
11816.00,0.1847
11815.00,0.1849
11814.00,0.1849
11813.00,0.1849
11812.00,0.1848
11811.00,0.1850
11810.00,0.1853
11809.00,0.1856
11808.00,0.1859
11807.00,0.1859
11806.00,0.1856
11805.00,0.1854
11804.00,0.1851
11803.00,0.1850
11802.00,0.1850
11801.00,0.1850
11800.00,0.1849
11799.00,0.1847
11798.00,0.1846
11797.00,0.1845
11796.00,0.1847
11795.00,0.1849
11794.00,0.1852
11793.00,0.1852
11792.00,0.1851
11791.00,0.1849
11790.00,0.1848
11789.00,0.1849
11788.00,0.1851
11787.00,0.1854
11786.00,0.1856
11785.00,0.1857
11784.00,0.1854
11783.00,0.1851
11782.00,0.1848
11781.00,0.1846
11780.00,0.1847
11779.00,0.1848
11778.00,0.1850
11777.00,0.1851
11776.00,0.1850
11775.00,0.1847
11774.00,0.1844
11773.00,0.1843
11772.00,0.1843
11771.00,0.1845
11770.00,0.1847
11769.00,0.1849
11768.00,0.1850
11767.00,0.1849
11766.00,0.1847
11765.00,0.1845
11764.00,0.1845
11763.00,0.1847
11762.00,0.1850
11761.00,0.1853
11760.00,0.1855
11759.00,0.1855
11758.00,0.1854
11757.00,0.1851
11756.00,0.1849
11755.00,0.1848
11754.00,0.1847
11753.00,0.1847
11752.00,0.1848
11751.00,0.1849
11750.00,0.1849
11749.00,0.1848
11748.00,0.1845
11747.00,0.1841
11746.00,0.1837
11745.00,0.1835
11744.00,0.1835
11743.00,0.1839
11742.00,0.1844
11741.00,0.1849
11740.00,0.1852
11739.00,0.1853
11738.00,0.1851
11737.00,0.1850
11736.00,0.1850
11735.00,0.1853
11734.00,0.1858
11733.00,0.1864
11732.00,0.1867
11731.00,0.1867
11730.00,0.1865
11729.00,0.1860
11728.00,0.1856
11727.00,0.1853
11726.00,0.1853
11725.00,0.1854
11724.00,0.1856
11723.00,0.1858
11722.00,0.1859
11721.00,0.1858
11720.00,0.1857
11719.00,0.1856
11718.00,0.1855
11717.00,0.1855
11716.00,0.1856
11715.00,0.1859
11714.00,0.1862
11713.00,0.1864
11712.00,0.1864
11711.00,0.1861
11710.00,0.1857
11709.00,0.1851
11708.00,0.1848
11707.00,0.1846
11706.00,0.1847
11705.00,0.1848
11704.00,0.1848
11703.00,0.1847
11702.00,0.1845
11701.00,0.1844
11700.00,0.1844
11699.00,0.1845
11698.00,0.1848
11697.00,0.1851
11696.00,0.1852
11695.00,0.1852
11694.00,0.1851
11693.00,0.1850
11692.00,0.1848
11691.00,0.1847
11690.00,0.1847
11689.00,0.1847
11688.00,0.1847
11687.00,0.1848
11686.00,0.1849
11685.00,0.1849
11684.00,0.1850
11683.00,0.1851
11682.00,0.1852
11681.00,0.1854
11680.00,0.1856
11679.00,0.1858
11678.00,0.1860
11677.00,0.1860
11676.00,0.1858
11675.00,0.1856
11674.00,0.1853
11673.00,0.1851
11672.00,0.1851
11671.00,0.1853
11670.00,0.1855
11669.00,0.1857
11668.00,0.1858
11667.00,0.1858
11666.00,0.1858
11665.00,0.1858
11664.00,0.1857
11663.00,0.1856
11662.00,0.1856
11661.00,0.1856
11660.00,0.1856
11659.00,0.1857
11658.00,0.1857
11657.00,0.1858
11656.00,0.1858
11655.00,0.1858
11654.00,0.1857
11653.00,0.1855
11652.00,0.1854
11651.00,0.1854
11650.00,0.1854
11649.00,0.1855
11648.00,0.1857
11647.00,0.1858
11646.00,0.1860
11645.00,0.1859
11644.00,0.1858
11643.00,0.1856
11642.00,0.1856
11641.00,0.1856
11640.00,0.1858
11639.00,0.1860
11638.00,0.1862
11637.00,0.1861
11636.00,0.1860
11635.00,0.1857
11634.00,0.1855
11633.00,0.1854
11632.00,0.1854
11631.00,0.1854
11630.00,0.1854
11629.00,0.1854
11628.00,0.1854
11627.00,0.1855
11626.00,0.1855
11625.00,0.1854
11624.00,0.1853
11623.00,0.1851
11622.00,0.1850
11621.00,0.1851
11620.00,0.1854
11619.00,0.1859
11618.00,0.1863
11617.00,0.1864
11616.00,0.1863
11615.00,0.1860
11614.00,0.1857
11613.00,0.1857
11612.00,0.1859
11611.00,0.1862
11610.00,0.1864
11609.00,0.1863
11608.00,0.1859
11607.00,0.1854
11606.00,0.1850
11605.00,0.1848
11604.00,0.1848
11603.00,0.1850
11602.00,0.1852
11601.00,0.1853
11600.00,0.1854
11599.00,0.1855
11598.00,0.1857
11597.00,0.1858
11596.00,0.1857
11595.00,0.1856
11594.00,0.1854
11593.00,0.1853
11592.00,0.1854
11591.00,0.1857
11590.00,0.1862
11589.00,0.1866
11588.00,0.1868
11587.00,0.1868
11586.00,0.1867
11585.00,0.1866
11584.00,0.1866
11583.00,0.1868
11582.00,0.1871
11581.00,0.1873
11580.00,0.1872
11579.00,0.1868
11578.00,0.1864
11577.00,0.1859
11576.00,0.1857
11575.00,0.1857
11574.00,0.1858
11573.00,0.1859
11572.00,0.1859
11571.00,0.1858
11570.00,0.1858
11569.00,0.1859
11568.00,0.1862
11567.00,0.1866
11566.00,0.1870
11565.00,0.1872
11564.00,0.1871
11563.00,0.1868
11562.00,0.1865
11561.00,0.1864
11560.00,0.1865
11559.00,0.1866
11558.00,0.1867
11557.00,0.1867
11556.00,0.1865
11555.00,0.1863
11554.00,0.1862
11553.00,0.1862
11552.00,0.1863
11551.00,0.1864
11550.00,0.1863
11549.00,0.1861
11548.00,0.1861
11547.00,0.1861
11546.00,0.1862
11545.00,0.1863
11544.00,0.1863
11543.00,0.1860
11542.00,0.1856
11541.00,0.1853
11540.00,0.1852
11539.00,0.1854
11538.00,0.1858
11537.00,0.1861
11536.00,0.1862
11535.00,0.1860
11534.00,0.1856
11533.00,0.1853
11532.00,0.1852
11531.00,0.1853
11530.00,0.1855
11529.00,0.1858
11528.00,0.1860
11527.00,0.1861
11526.00,0.1861
11525.00,0.1862
11524.00,0.1865
11523.00,0.1869
11522.00,0.1874
11521.00,0.1878
11520.00,0.1881
11519.00,0.1882
11518.00,0.1881
11517.00,0.1879
11516.00,0.1877
11515.00,0.1875
11514.00,0.1874
11513.00,0.1872
11512.00,0.1870
11511.00,0.1868
11510.00,0.1864
11509.00,0.1861
11508.00,0.1858
11507.00,0.1856
11506.00,0.1856
11505.00,0.1857
11504.00,0.1859
11503.00,0.1860
11502.00,0.1860
11501.00,0.1859
11500.00,0.1856
11499.00,0.1854
11498.00,0.1852
11497.00,0.1852
11496.00,0.1853
11495.00,0.1854
11494.00,0.1855
11493.00,0.1856
11492.00,0.1858
11491.00,0.1859
11490.00,0.1861
11489.00,0.1862
11488.00,0.1863
11487.00,0.1864
11486.00,0.1864
11485.00,0.1864
11484.00,0.1864
11483.00,0.1863
11482.00,0.1861
11481.00,0.1858
11480.00,0.1855
11479.00,0.1853
11478.00,0.1851
11477.00,0.1850
11476.00,0.1851
11475.00,0.1852
11474.00,0.1854
11473.00,0.1855
11472.00,0.1856
11471.00,0.1856
11470.00,0.1856
11469.00,0.1855
11468.00,0.1854
11467.00,0.1852
11466.00,0.1850
11465.00,0.1849
11464.00,0.1849
11463.00,0.1850
11462.00,0.1852
11461.00,0.1855
11460.00,0.1857
11459.00,0.1858
11458.00,0.1859
11457.00,0.1858
11456.00,0.1858
11455.00,0.1859
11454.00,0.1861
11453.00,0.1862
11452.00,0.1863
11451.00,0.1862
11450.00,0.1860
11449.00,0.1857
11448.00,0.1855
11447.00,0.1855
11446.00,0.1856
11445.00,0.1859
11444.00,0.1861
11443.00,0.1862
11442.00,0.1862
11441.00,0.1860
11440.00,0.1859
11439.00,0.1858
11438.00,0.1858
11437.00,0.1859
11436.00,0.1859
11435.00,0.1858
11434.00,0.1857
11433.00,0.1854
11432.00,0.1853
11431.00,0.1852
11430.00,0.1854
11429.00,0.1856
11428.00,0.1859
11427.00,0.1862
11426.00,0.1864
11425.00,0.1866
11424.00,0.1866
11423.00,0.1865
11422.00,0.1863
11421.00,0.1862
11420.00,0.1861
11419.00,0.1861
11418.00,0.1862
11417.00,0.1863
11416.00,0.1862
11415.00,0.1861
11414.00,0.1861
11413.00,0.1862
11412.00,0.1865
11411.00,0.1870
11410.00,0.1875
11409.00,0.1879
11408.00,0.1879
11407.00,0.1877
11406.00,0.1874
11405.00,0.1871
11404.00,0.1870
11403.00,0.1870
11402.00,0.1870
11401.00,0.1871
11400.00,0.1870
11399.00,0.1870
11398.00,0.1870
11397.00,0.1870
11396.00,0.1869
11395.00,0.1868
11394.00,0.1867
11393.00,0.1868
11392.00,0.1870
11391.00,0.1873
11390.00,0.1874
11389.00,0.1872
11388.00,0.1867
11387.00,0.1862
11386.00,0.1860
11385.00,0.1861
11384.00,0.1866
11383.00,0.1872
11382.00,0.1877
11381.00,0.1877
11380.00,0.1873
11379.00,0.1867
11378.00,0.1862
11377.00,0.1860
11376.00,0.1861
11375.00,0.1864
11374.00,0.1865
11373.00,0.1865
11372.00,0.1862
11371.00,0.1860
11370.00,0.1859
11369.00,0.1860
11368.00,0.1862
11367.00,0.1864
11366.00,0.1865
11365.00,0.1864
11364.00,0.1862
11363.00,0.1860
11362.00,0.1858
11361.00,0.1857
11360.00,0.1855
11359.00,0.1853
11358.00,0.1850
11357.00,0.1848
11356.00,0.1848
11355.00,0.1850
11354.00,0.1855
11353.00,0.1859
11352.00,0.1862
11351.00,0.1862
11350.00,0.1862
11349.00,0.1861
11348.00,0.1861
11347.00,0.1863
11346.00,0.1865
11345.00,0.1867
11344.00,0.1869
11343.00,0.1870
11342.00,0.1871
11341.00,0.1870
11340.00,0.1869
11339.00,0.1868
11338.00,0.1866
11337.00,0.1866
11336.00,0.1867
11335.00,0.1869
11334.00,0.1871
11333.00,0.1872
11332.00,0.1871
11331.00,0.1869
11330.00,0.1866
11329.00,0.1866
11328.00,0.1866
11327.00,0.1868
11326.00,0.1870
11325.00,0.1871
11324.00,0.1871
11323.00,0.1871
11322.00,0.1870
11321.00,0.1870
11320.00,0.1871
11319.00,0.1871
11318.00,0.1871
11317.00,0.1871
11316.00,0.1869
11315.00,0.1867
11314.00,0.1866
11313.00,0.1865
11312.00,0.1866
11311.00,0.1866
11310.00,0.1866
11309.00,0.1865
11308.00,0.1863
11307.00,0.1860
11306.00,0.1860
11305.00,0.1861
11304.00,0.1864
11303.00,0.1867
11302.00,0.1870
11301.00,0.1871
11300.00,0.1872
11299.00,0.1871
11298.00,0.1871
11297.00,0.1871
11296.00,0.1872
11295.00,0.1873
11294.00,0.1874
11293.00,0.1874
11292.00,0.1874
11291.00,0.1873
11290.00,0.1872
11289.00,0.1872
11288.00,0.1871
11287.00,0.1869
11286.00,0.1869
11285.00,0.1868
11284.00,0.1869
11283.00,0.1869
11282.00,0.1869
11281.00,0.1867
11280.00,0.1864
11279.00,0.1860
11278.00,0.1858
11277.00,0.1859
11276.00,0.1861
11275.00,0.1865
11274.00,0.1867
11273.00,0.1868
11272.00,0.1868
11271.00,0.1868
11270.00,0.1871
11269.00,0.1875
11268.00,0.1881
11267.00,0.1884
11266.00,0.1884
11265.00,0.1880
11264.00,0.1876
11263.00,0.1873
11262.00,0.1872
11261.00,0.1873
11260.00,0.1874
11259.00,0.1872
11258.00,0.1868
11257.00,0.1863
11256.00,0.1860
11255.00,0.1860
11254.00,0.1862
11253.00,0.1864
11252.00,0.1866
11251.00,0.1865
11250.00,0.1865
11249.00,0.1864
11248.00,0.1866
11247.00,0.1868
11246.00,0.1870
11245.00,0.1872
11244.00,0.1872
11243.00,0.1872
11242.00,0.1873
11241.00,0.1874
11240.00,0.1874
11239.00,0.1874
11238.00,0.1873
11237.00,0.1870
11236.00,0.1867
11235.00,0.1865
11234.00,0.1865
11233.00,0.1865
11232.00,0.1866
11231.00,0.1865
11230.00,0.1864
11229.00,0.1863
11228.00,0.1863
11227.00,0.1865
11226.00,0.1868
11225.00,0.1872
11224.00,0.1875
11223.00,0.1875
11222.00,0.1875
11221.00,0.1873
11220.00,0.1873
11219.00,0.1873
11218.00,0.1873
11217.00,0.1874
11216.00,0.1874
11215.00,0.1874
11214.00,0.1873
11213.00,0.1874
11212.00,0.1875
11211.00,0.1878
11210.00,0.1881
11209.00,0.1883
11208.00,0.1885
11207.00,0.1885
11206.00,0.1886
11205.00,0.1886
11204.00,0.1885
11203.00,0.1885
11202.00,0.1884
11201.00,0.1881
11200.00,0.1878
11199.00,0.1874
11198.00,0.1871
11197.00,0.1870
11196.00,0.1869
11195.00,0.1869
11194.00,0.1869
11193.00,0.1869
11192.00,0.1868
11191.00,0.1867
11190.00,0.1868
11189.00,0.1870
11188.00,0.1873
11187.00,0.1876
11186.00,0.1877
11185.00,0.1877
11184.00,0.1876
11183.00,0.1876
11182.00,0.1877
11181.00,0.1879
11180.00,0.1881
11179.00,0.1881
11178.00,0.1879
11177.00,0.1875
11176.00,0.1871
11175.00,0.1868
11174.00,0.1867
11173.00,0.1867
11172.00,0.1869
11171.00,0.1871
11170.00,0.1872
11169.00,0.1873
11168.00,0.1873
11167.00,0.1873
11166.00,0.1873
11165.00,0.1875
11164.00,0.1877
11163.00,0.1880
11162.00,0.1882
11161.00,0.1883
11160.00,0.1882
11159.00,0.1879
11158.00,0.1877
11157.00,0.1874
11156.00,0.1873
11155.00,0.1873
11154.00,0.1874
11153.00,0.1875
11152.00,0.1876
11151.00,0.1876
11150.00,0.1877
11149.00,0.1876
11148.00,0.1876
11147.00,0.1876
11146.00,0.1876
11145.00,0.1877
11144.00,0.1878
11143.00,0.1879
11142.00,0.1877
11141.00,0.1873
11140.00,0.1869
11139.00,0.1865
11138.00,0.1864
11137.00,0.1866
11136.00,0.1869
11135.00,0.1872
11134.00,0.1874
11133.00,0.1874
11132.00,0.1873
11131.00,0.1873
11130.00,0.1875
11129.00,0.1878
11128.00,0.1882
11127.00,0.1885
11126.00,0.1886
11125.00,0.1885
11124.00,0.1882
11123.00,0.1878
11122.00,0.1875
11121.00,0.1874
11120.00,0.1875
11119.00,0.1877
11118.00,0.1880
11117.00,0.1882
11116.00,0.1884
11115.00,0.1883
11114.00,0.1882
11113.00,0.1879
11112.00,0.1878
11111.00,0.1878
11110.00,0.1880
11109.00,0.1882
11108.00,0.1884
11107.00,0.1884
11106.00,0.1882
11105.00,0.1880
11104.00,0.1878
11103.00,0.1877
11102.00,0.1878
11101.00,0.1880
11100.00,0.1882
11099.00,0.1884
11098.00,0.1884
11097.00,0.1883
11096.00,0.1881
11095.00,0.1878
11094.00,0.1877
11093.00,0.1876
11092.00,0.1876
11091.00,0.1877
11090.00,0.1878
11089.00,0.1878
11088.00,0.1878
11087.00,0.1876
11086.00,0.1875
11085.00,0.1873
11084.00,0.1873
11083.00,0.1873
11082.00,0.1874
11081.00,0.1875
11080.00,0.1876
11079.00,0.1876
11078.00,0.1874
11077.00,0.1872
11076.00,0.1871
11075.00,0.1870
11074.00,0.1870
11073.00,0.1872
11072.00,0.1874
11071.00,0.1876
11070.00,0.1878
11069.00,0.1878
11068.00,0.1877
11067.00,0.1877
11066.00,0.1877
11065.00,0.1878
11064.00,0.1880
11063.00,0.1882
11062.00,0.1883
11061.00,0.1883
11060.00,0.1883
11059.00,0.1883
11058.00,0.1883
11057.00,0.1885
11056.00,0.1887
11055.00,0.1888
11054.00,0.1889
11053.00,0.1888
11052.00,0.1886
11051.00,0.1884
11050.00,0.1882
11049.00,0.1880
11048.00,0.1878
11047.00,0.1876
11046.00,0.1873
11045.00,0.1869
11044.00,0.1865
11043.00,0.1863
11042.00,0.1862
11041.00,0.1862
11040.00,0.1863
11039.00,0.1865
11038.00,0.1866
11037.00,0.1868
11036.00,0.1869
11035.00,0.1871
11034.00,0.1875
11033.00,0.1878
11032.00,0.1882
11031.00,0.1885
11030.00,0.1888
11029.00,0.1890
11028.00,0.1893
11027.00,0.1894
11026.00,0.1895
11025.00,0.1893
11024.00,0.1890
11023.00,0.1887
11022.00,0.1884
11021.00,0.1884
11020.00,0.1884
11019.00,0.1884
11018.00,0.1881
11017.00,0.1876
11016.00,0.1871
11015.00,0.1869
11014.00,0.1870
11013.00,0.1874
11012.00,0.1880
11011.00,0.1884
11010.00,0.1886
11009.00,0.1887
11008.00,0.1888
11007.00,0.1889
11006.00,0.1892
11005.00,0.1895
11004.00,0.1895
11003.00,0.1893
11002.00,0.1890
11001.00,0.1886
11000.00,0.1883
10999.00,0.1882
10998.00,0.1880
10997.00,0.1879
10996.00,0.1877
10995.00,0.1877
10994.00,0.1878
10993.00,0.1880
10992.00,0.1882
10991.00,0.1883
10990.00,0.1883
10989.00,0.1883
10988.00,0.1883
10987.00,0.1884
10986.00,0.1884
10985.00,0.1884
10984.00,0.1882
10983.00,0.1878
10982.00,0.1875
10981.00,0.1874
10980.00,0.1875
10979.00,0.1877
10978.00,0.1878
10977.00,0.1876
10976.00,0.1873
10975.00,0.1871
10974.00,0.1871
10973.00,0.1874
10972.00,0.1880
10971.00,0.1885
10970.00,0.1887
10969.00,0.1885
10968.00,0.1880
10967.00,0.1877
10966.00,0.1875
10965.00,0.1877
10964.00,0.1880
10963.00,0.1882
10962.00,0.1883
10961.00,0.1881
10960.00,0.1878
10959.00,0.1875
10958.00,0.1872
10957.00,0.1871
10956.00,0.1873
10955.00,0.1876
10954.00,0.1881
10953.00,0.1885
10952.00,0.1887
10951.00,0.1886
10950.00,0.1885
10949.00,0.1885
10948.00,0.1887
10947.00,0.1892
10946.00,0.1897
10945.00,0.1900
10944.00,0.1900
10943.00,0.1896
10942.00,0.1892
10941.00,0.1888
10940.00,0.1887
10939.00,0.1886
10938.00,0.1885
10937.00,0.1883
10936.00,0.1880
10935.00,0.1876
10934.00,0.1875
10933.00,0.1875
10932.00,0.1877
10931.00,0.1879
10930.00,0.1880
10929.00,0.1880
10928.00,0.1881
10927.00,0.1882
10926.00,0.1883
10925.00,0.1885
10924.00,0.1887
10923.00,0.1888
10922.00,0.1889
10921.00,0.1890
10920.00,0.1891
10919.00,0.1893
10918.00,0.1895
10917.00,0.1896
10916.00,0.1896
10915.00,0.1896
10914.00,0.1896
10913.00,0.1895
10912.00,0.1895
10911.00,0.1895
10910.00,0.1895
10909.00,0.1895
10908.00,0.1895
10907.00,0.1893
10906.00,0.1890
10905.00,0.1887
10904.00,0.1885
10903.00,0.1884
10902.00,0.1884
10901.00,0.1885
10900.00,0.1884
10899.00,0.1881
10898.00,0.1877
10897.00,0.1873
10896.00,0.1872
10895.00,0.1874
10894.00,0.1877
10893.00,0.1879
10892.00,0.1880
10891.00,0.1879
10890.00,0.1878
10889.00,0.1878
10888.00,0.1878
10887.00,0.1880
10886.00,0.1881
10885.00,0.1881
10884.00,0.1880
10883.00,0.1879
10882.00,0.1877
10881.00,0.1875
10880.00,0.1874
10879.00,0.1874
10878.00,0.1874
10877.00,0.1874
10876.00,0.1873
10875.00,0.1872
10874.00,0.1871
10873.00,0.1871
10872.00,0.1871
10871.00,0.1873
10870.00,0.1877
10869.00,0.1880
10868.00,0.1882
10867.00,0.1882
10866.00,0.1881
10865.00,0.1879
10864.00,0.1879
10863.00,0.1880
10862.00,0.1883
10861.00,0.1885
10860.00,0.1885
10859.00,0.1884
10858.00,0.1882
10857.00,0.1879
10856.00,0.1878
10855.00,0.1879
10854.00,0.1880
10853.00,0.1882
10852.00,0.1883
10851.00,0.1883
10850.00,0.1883
10849.00,0.1884
10848.00,0.1885
10847.00,0.1886
10846.00,0.1886
10845.00,0.1884
10844.00,0.1881
10843.00,0.1878
10842.00,0.1877
10841.00,0.1877
10840.00,0.1878
10839.00,0.1878
10838.00,0.1877
10837.00,0.1874
10836.00,0.1872
10835.00,0.1871
10834.00,0.1871
10833.00,0.1871
10832.00,0.1872
10831.00,0.1871
10830.00,0.1870
10829.00,0.1869
10828.00,0.1868
10827.00,0.1869
10826.00,0.1870
10825.00,0.1870
10824.00,0.1869
10823.00,0.1869
10822.00,0.1869
10821.00,0.1872
10820.00,0.1876
10819.00,0.1880
10818.00,0.1883
10817.00,0.1883
10816.00,0.1882
10815.00,0.1882
10814.00,0.1882
10813.00,0.1884
10812.00,0.1885
10811.00,0.1885
10810.00,0.1884
10809.00,0.1881
10808.00,0.1879
10807.00,0.1878
10806.00,0.1878
10805.00,0.1878
10804.00,0.1878
10803.00,0.1877
10802.00,0.1877
10801.00,0.1877
10800.00,0.1878
10799.00,0.1878
10798.00,0.1879
10797.00,0.1879
10796.00,0.1878
10795.00,0.1878
10794.00,0.1877
10793.00,0.1877
10792.00,0.1875
10791.00,0.1874
10790.00,0.1873
10789.00,0.1872
10788.00,0.1873
10787.00,0.1874
10786.00,0.1875
10785.00,0.1876
10784.00,0.1877
10783.00,0.1878
10782.00,0.1879
10781.00,0.1880
10780.00,0.1881
10779.00,0.1880
10778.00,0.1877
10777.00,0.1875
10776.00,0.1873
10775.00,0.1872
10774.00,0.1873
10773.00,0.1874
10772.00,0.1874
10771.00,0.1873
10770.00,0.1872
10769.00,0.1871
10768.00,0.1872
10767.00,0.1874
10766.00,0.1876
10765.00,0.1878
10764.00,0.1879
10763.00,0.1879
10762.00,0.1878
10761.00,0.1876
10760.00,0.1874
10759.00,0.1873
10758.00,0.1872
10757.00,0.1872
10756.00,0.1872
10755.00,0.1872
10754.00,0.1872
10753.00,0.1872
10752.00,0.1872
10751.00,0.1873
10750.00,0.1875
10749.00,0.1876
10748.00,0.1876
10747.00,0.1876
10746.00,0.1876
10745.00,0.1877
10744.00,0.1879
10743.00,0.1880
10742.00,0.1881
10741.00,0.1881
10740.00,0.1880
10739.00,0.1880
10738.00,0.1880
10737.00,0.1881
10736.00,0.1881
10735.00,0.1880
10734.00,0.1878
10733.00,0.1877
10732.00,0.1878
10731.00,0.1881
10730.00,0.1883
10729.00,0.1884
10728.00,0.1883
10727.00,0.1878
10726.00,0.1874
10725.00,0.1872
10724.00,0.1872
10723.00,0.1874
10722.00,0.1876
10721.00,0.1877
10720.00,0.1875
10719.00,0.1873
10718.00,0.1871
10717.00,0.1870
10716.00,0.1871
10715.00,0.1873
10714.00,0.1875
10713.00,0.1876
10712.00,0.1877
10711.00,0.1877
10710.00,0.1876
10709.00,0.1875
10708.00,0.1874
10707.00,0.1875
10706.00,0.1877
10705.00,0.1879
10704.00,0.1882
10703.00,0.1883
10702.00,0.1884
10701.00,0.1884
10700.00,0.1885
10699.00,0.1886
10698.00,0.1886
10697.00,0.1886
10696.00,0.1884
10695.00,0.1881
10694.00,0.1878
10693.00,0.1875
10692.00,0.1873
10691.00,0.1873
10690.00,0.1874
10689.00,0.1875
10688.00,0.1876
10687.00,0.1876
10686.00,0.1876
10685.00,0.1875
10684.00,0.1875
10683.00,0.1876
10682.00,0.1877
10681.00,0.1878
10680.00,0.1878
10679.00,0.1877
10678.00,0.1876
10677.00,0.1875
10676.00,0.1875
10675.00,0.1875
10674.00,0.1876
10673.00,0.1878
10672.00,0.1879
10671.00,0.1881
10670.00,0.1882
10669.00,0.1882
10668.00,0.1883
10667.00,0.1884
10666.00,0.1886
10665.00,0.1887
10664.00,0.1888
10663.00,0.1888
10662.00,0.1886
10661.00,0.1884
10660.00,0.1883
10659.00,0.1883
10658.00,0.1884
10657.00,0.1886
10656.00,0.1886
10655.00,0.1885
10654.00,0.1883
10653.00,0.1881
10652.00,0.1880
10651.00,0.1881
10650.00,0.1882
10649.00,0.1884
10648.00,0.1886
10647.00,0.1886
10646.00,0.1884
10645.00,0.1882
10644.00,0.1879
10643.00,0.1879
10642.00,0.1880
10641.00,0.1882
10640.00,0.1883
10639.00,0.1884
10638.00,0.1883
10637.00,0.1883
10636.00,0.1883
10635.00,0.1885
10634.00,0.1887
10633.00,0.1889
10632.00,0.1890
10631.00,0.1890
10630.00,0.1889
10629.00,0.1889
10628.00,0.1889
10627.00,0.1889
10626.00,0.1888
10625.00,0.1887
10624.00,0.1886
10623.00,0.1886
10622.00,0.1886
10621.00,0.1887
10620.00,0.1888
10619.00,0.1889
10618.00,0.1888
10617.00,0.1887
10616.00,0.1885
10615.00,0.1884
10614.00,0.1884
10613.00,0.1885
10612.00,0.1887
10611.00,0.1890
10610.00,0.1891
10609.00,0.1891
10608.00,0.1890
10607.00,0.1889
10606.00,0.1888
10605.00,0.1888
10604.00,0.1888
10603.00,0.1887
10602.00,0.1885
10601.00,0.1883
10600.00,0.1882
10599.00,0.1883
10598.00,0.1885
10597.00,0.1888
10596.00,0.1890
10595.00,0.1891
10594.00,0.1891
10593.00,0.1892
10592.00,0.1892
10591.00,0.1893
10590.00,0.1893
10589.00,0.1893
10588.00,0.1891
10587.00,0.1889
10586.00,0.1886
10585.00,0.1884
10584.00,0.1883
10583.00,0.1883
10582.00,0.1884
10581.00,0.1886
10580.00,0.1889
10579.00,0.1891
10578.00,0.1893
10577.00,0.1893
10576.00,0.1893
10575.00,0.1891
10574.00,0.1889
10573.00,0.1887
10572.00,0.1887
10571.00,0.1887
10570.00,0.1888
10569.00,0.1889
10568.00,0.1890
10567.00,0.1889
10566.00,0.1888
10565.00,0.1888
10564.00,0.1889
10563.00,0.1892
10562.00,0.1894
10561.00,0.1896
10560.00,0.1896
10559.00,0.1895
10558.00,0.1894
10557.00,0.1893
10556.00,0.1894
10555.00,0.1894
10554.00,0.1895
10553.00,0.1896
10552.00,0.1897
10551.00,0.1900
10550.00,0.1902
10549.00,0.1903
10548.00,0.1903
10547.00,0.1902
10546.00,0.1900
10545.00,0.1898
10544.00,0.1897
10543.00,0.1897
10542.00,0.1897
10541.00,0.1896
10540.00,0.1896
10539.00,0.1895
10538.00,0.1896
10537.00,0.1897
10536.00,0.1898
10535.00,0.1900
10534.00,0.1900
10533.00,0.1900
10532.00,0.1900
10531.00,0.1899
10530.00,0.1898
10529.00,0.1898
10528.00,0.1897
10527.00,0.1897
10526.00,0.1897
10525.00,0.1897
10524.00,0.1897
10523.00,0.1899
10522.00,0.1901
10521.00,0.1904
10520.00,0.1907
10519.00,0.1909
10518.00,0.1909
10517.00,0.1907
10516.00,0.1905
10515.00,0.1903
10514.00,0.1903
10513.00,0.1903
10512.00,0.1903
10511.00,0.1903
10510.00,0.1903
10509.00,0.1902
10508.00,0.1903
10507.00,0.1905
10506.00,0.1908
10505.00,0.1910
10504.00,0.1912
10503.00,0.1912
10502.00,0.1911
10501.00,0.1910
10500.00,0.1910
10499.00,0.1911
10498.00,0.1913
10497.00,0.1915
10496.00,0.1914
10495.00,0.1912
10494.00,0.1910
10493.00,0.1909
10492.00,0.1910
10491.00,0.1913
10490.00,0.1916
10489.00,0.1919
10488.00,0.1920
10487.00,0.1920
10486.00,0.1918
10485.00,0.1917
10484.00,0.1917
10483.00,0.1917
10482.00,0.1917
10481.00,0.1917
10480.00,0.1916
10479.00,0.1915
10478.00,0.1913
10477.00,0.1911
10476.00,0.1911
10475.00,0.1911
10474.00,0.1912
10473.00,0.1914
10472.00,0.1915
10471.00,0.1917
10470.00,0.1918
10469.00,0.1919
10468.00,0.1921
10467.00,0.1922
10466.00,0.1922
10465.00,0.1922
10464.00,0.1920
10463.00,0.1918
10462.00,0.1916
10461.00,0.1915
10460.00,0.1914
10459.00,0.1914
10458.00,0.1914
10457.00,0.1914
10456.00,0.1915
10455.00,0.1915
10454.00,0.1916
10453.00,0.1917
10452.00,0.1919
10451.00,0.1920
10450.00,0.1922
10449.00,0.1923
10448.00,0.1924
10447.00,0.1925
10446.00,0.1926
10445.00,0.1925
10444.00,0.1923
10443.00,0.1920
10442.00,0.1917
10441.00,0.1916
10440.00,0.1917
10439.00,0.1919
10438.00,0.1921
10437.00,0.1921
10436.00,0.1920
10435.00,0.1919
10434.00,0.1919
10433.00,0.1921
10432.00,0.1924
10431.00,0.1927
10430.00,0.1928
10429.00,0.1928
10428.00,0.1928
10427.00,0.1927
10426.00,0.1928
10425.00,0.1928
10424.00,0.1928
10423.00,0.1928
10422.00,0.1926
10421.00,0.1924
10420.00,0.1923
10419.00,0.1922
10418.00,0.1922
10417.00,0.1922
10416.00,0.1923
10415.00,0.1924
10414.00,0.1925
10413.00,0.1926
10412.00,0.1927
10411.00,0.1929
10410.00,0.1931
10409.00,0.1933
10408.00,0.1933
10407.00,0.1933
10406.00,0.1933
10405.00,0.1933
10404.00,0.1933
10403.00,0.1932
10402.00,0.1930
10401.00,0.1928
10400.00,0.1925
10399.00,0.1923
10398.00,0.1924
10397.00,0.1925
10396.00,0.1926
10395.00,0.1927
10394.00,0.1927
10393.00,0.1927
10392.00,0.1928
10391.00,0.1931
10390.00,0.1934
10389.00,0.1937
10388.00,0.1939
10387.00,0.1939
10386.00,0.1939
10385.00,0.1938
10384.00,0.1937
10383.00,0.1936
10382.00,0.1935
10381.00,0.1935
10380.00,0.1934
10379.00,0.1934
10378.00,0.1933
10377.00,0.1933
10376.00,0.1932
10375.00,0.1932
10374.00,0.1932
10373.00,0.1933
10372.00,0.1935
10371.00,0.1936
10370.00,0.1937
10369.00,0.1937
10368.00,0.1938
10367.00,0.1939
10366.00,0.1939
10365.00,0.1939
10364.00,0.1938
10363.00,0.1937
10362.00,0.1937
10361.00,0.1937
10360.00,0.1939
10359.00,0.1940
10358.00,0.1940
10357.00,0.1940
10356.00,0.1941
10355.00,0.1942
10354.00,0.1945
10353.00,0.1948
10352.00,0.1952
10351.00,0.1954
10350.00,0.1953
10349.00,0.1951
10348.00,0.1948
10347.00,0.1946
10346.00,0.1946
10345.00,0.1948
10344.00,0.1950
10343.00,0.1951
10342.00,0.1950
10341.00,0.1948
10340.00,0.1946
10339.00,0.1946
10338.00,0.1948
10337.00,0.1949
10336.00,0.1950
10335.00,0.1949
10334.00,0.1948
10333.00,0.1947
10332.00,0.1947
10331.00,0.1948
10330.00,0.1949
10329.00,0.1949
10328.00,0.1949
10327.00,0.1949
10326.00,0.1950
10325.00,0.1953
10324.00,0.1955
10323.00,0.1955
10322.00,0.1954
10321.00,0.1952
10320.00,0.1951
10319.00,0.1952
10318.00,0.1954
10317.00,0.1955
10316.00,0.1956
10315.00,0.1955
10314.00,0.1952
10313.00,0.1949
10312.00,0.1948
10311.00,0.1949
10310.00,0.1952
10309.00,0.1955
10308.00,0.1957
10307.00,0.1957
10306.00,0.1955
10305.00,0.1955
10304.00,0.1955
10303.00,0.1958
10302.00,0.1960
10301.00,0.1962
10300.00,0.1961
10299.00,0.1959
10298.00,0.1956
10297.00,0.1954
10296.00,0.1952
10295.00,0.1952
10294.00,0.1953
10293.00,0.1954
10292.00,0.1955
10291.00,0.1957
10290.00,0.1959
10289.00,0.1960
10288.00,0.1960
10287.00,0.1961
10286.00,0.1962
10285.00,0.1963
10284.00,0.1965
10283.00,0.1967
10282.00,0.1967
10281.00,0.1967
10280.00,0.1968
10279.00,0.1969
10278.00,0.1971
10277.00,0.1974
10276.00,0.1975
10275.00,0.1975
10274.00,0.1974
10273.00,0.1972
10272.00,0.1971
10271.00,0.1969
10270.00,0.1968
10269.00,0.1967
10268.00,0.1967
10267.00,0.1966
10266.00,0.1966
10265.00,0.1967
10264.00,0.1967
10263.00,0.1968
10262.00,0.1970
10261.00,0.1973
10260.00,0.1975
10259.00,0.1976
10258.00,0.1976
10257.00,0.1974
10256.00,0.1972
10255.00,0.1971
10254.00,0.1971
10253.00,0.1972
10252.00,0.1973
10251.00,0.1974
10250.00,0.1973
10249.00,0.1971
10248.00,0.1971
10247.00,0.1971
10246.00,0.1971
10245.00,0.1972
10244.00,0.1972
10243.00,0.1972
10242.00,0.1973
10241.00,0.1974
10240.00,0.1976
10239.00,0.1977
10238.00,0.1978
10237.00,0.1978
10236.00,0.1978
10235.00,0.1979
10234.00,0.1979
10233.00,0.1980
10232.00,0.1979
10231.00,0.1978
10230.00,0.1977
10229.00,0.1977
10228.00,0.1977
10227.00,0.1979
10226.00,0.1981
10225.00,0.1983
10224.00,0.1985
10223.00,0.1986
10222.00,0.1986
10221.00,0.1986
10220.00,0.1985
10219.00,0.1985
10218.00,0.1985
10217.00,0.1984
10216.00,0.1983
10215.00,0.1980
10214.00,0.1978
10213.00,0.1977
10212.00,0.1977
10211.00,0.1977
10210.00,0.1978
10209.00,0.1979
10208.00,0.1981
10207.00,0.1983
10206.00,0.1985
10205.00,0.1987
10204.00,0.1987
10203.00,0.1987
10202.00,0.1986
10201.00,0.1987
10200.00,0.1988
10199.00,0.1990
10198.00,0.1991
10197.00,0.1991
10196.00,0.1991
10195.00,0.1989
10194.00,0.1987
10193.00,0.1987
10192.00,0.1987
10191.00,0.1989
10190.00,0.1990
10189.00,0.1992
10188.00,0.1992
10187.00,0.1991
10186.00,0.1989
10185.00,0.1988
10184.00,0.1989
10183.00,0.1991
10182.00,0.1993
10181.00,0.1994
10180.00,0.1994
10179.00,0.1993
10178.00,0.1991
10177.00,0.1991
10176.00,0.1992
10175.00,0.1993
10174.00,0.1994
10173.00,0.1993
10172.00,0.1992
10171.00,0.1990
10170.00,0.1989
10169.00,0.1988
10168.00,0.1988
10167.00,0.1989
10166.00,0.1989
10165.00,0.1991
10164.00,0.1992
10163.00,0.1993
10162.00,0.1993
10161.00,0.1993
10160.00,0.1992
10159.00,0.1992
10158.00,0.1992
10157.00,0.1994
10156.00,0.1996
10155.00,0.1997
10154.00,0.1996
10153.00,0.1995
10152.00,0.1994
10151.00,0.1995
10150.00,0.1997
10149.00,0.2000
10148.00,0.2002
10147.00,0.2002
10146.00,0.1999
10145.00,0.1996
10144.00,0.1995
10143.00,0.1995
10142.00,0.1995
10141.00,0.1996
10140.00,0.1995
10139.00,0.1994
10138.00,0.1992
10137.00,0.1992
10136.00,0.1994
10135.00,0.1996
10134.00,0.1998
10133.00,0.1999
10132.00,0.1998
10131.00,0.1997
10130.00,0.1996
10129.00,0.1997
10128.00,0.1999
10127.00,0.2002
10126.00,0.2004
10125.00,0.2004
10124.00,0.2002
10123.00,0.2000
10122.00,0.1999
10121.00,0.2000
10120.00,0.2002
10119.00,0.2004
10118.00,0.2006
10117.00,0.2006
10116.00,0.2005
10115.00,0.2004
10114.00,0.2004
10113.00,0.2004
10112.00,0.2003
10111.00,0.2003
10110.00,0.2002
10109.00,0.2001
10108.00,0.2000
10107.00,0.1999
10106.00,0.1999
10105.00,0.1999
10104.00,0.1999
10103.00,0.1999
10102.00,0.2001
10101.00,0.2003
10100.00,0.2005
10099.00,0.2007
10098.00,0.2008
10097.00,0.2009
10096.00,0.2008
10095.00,0.2007
10094.00,0.2006
10093.00,0.2005
10092.00,0.2004
10091.00,0.2004
10090.00,0.2005
10089.00,0.2006
10088.00,0.2007
10087.00,0.2006
10086.00,0.2005
10085.00,0.2005
10084.00,0.2005
10083.00,0.2007
10082.00,0.2007
10081.00,0.2007
10080.00,0.2005
10079.00,0.2003
10078.00,0.2002
10077.00,0.2003
10076.00,0.2004
10075.00,0.2005
10074.00,0.2006
10073.00,0.2006
10072.00,0.2006
10071.00,0.2006
10070.00,0.2007
10069.00,0.2008
10068.00,0.2007
10067.00,0.2006
10066.00,0.2005
10065.00,0.2003
10064.00,0.2002
10063.00,0.2001
10062.00,0.2000
10061.00,0.2000
10060.00,0.2000
10059.00,0.2001
10058.00,0.2002
10057.00,0.2004
10056.00,0.2004
10055.00,0.2005
10054.00,0.2005
10053.00,0.2005
10052.00,0.2006
10051.00,0.2006
10050.00,0.2005
10049.00,0.2004
10048.00,0.2003
10047.00,0.2002
10046.00,0.2001
10045.00,0.2000
10044.00,0.2000
10043.00,0.2000
10042.00,0.2000
10041.00,0.2002
10040.00,0.2003
10039.00,0.2005
10038.00,0.2005
10037.00,0.2006
10036.00,0.2005
10035.00,0.2004
10034.00,0.2003
10033.00,0.2002
10032.00,0.2001
10031.00,0.2000
10030.00,0.1999
10029.00,0.1998
10028.00,0.1996
10027.00,0.1996
10026.00,0.1997
10025.00,0.2000
10024.00,0.2003
10023.00,0.2005
10022.00,0.2006
10021.00,0.2006
10020.00,0.2005
10019.00,0.2005
10018.00,0.2005
10017.00,0.2004
10016.00,0.2004
10015.00,0.2004
10014.00,0.2004
10013.00,0.2004
10012.00,0.2004
10011.00,0.2004
10010.00,0.2004
10009.00,0.2004
10008.00,0.2005
10007.00,0.2006
10006.00,0.2006
10005.00,0.2005
10004.00,0.2004
10003.00,0.2003
10002.00,0.2002
10001.00,0.2002
10000.00,0.2002
9999.00,0.2003
9998.00,0.2003
9997.00,0.2004
9996.00,0.2005
9995.00,0.2005
9994.00,0.2006
9993.00,0.2006
9992.00,0.2007
9991.00,0.2008
9990.00,0.2008
9989.00,0.2008
9988.00,0.2007
9987.00,0.2005
9986.00,0.2003
9985.00,0.2003
9984.00,0.2003
9983.00,0.2003
9982.00,0.2003
9981.00,0.2003
9980.00,0.2003
9979.00,0.2005
9978.00,0.2007
9977.00,0.2009
9976.00,0.2010
9975.00,0.2009
9974.00,0.2007
9973.00,0.2006
9972.00,0.2005
9971.00,0.2004
9970.00,0.2003
9969.00,0.2002
9968.00,0.2001
9967.00,0.2000
9966.00,0.2001
9965.00,0.2002
9964.00,0.2004
9963.00,0.2005
9962.00,0.2005
9961.00,0.2005
9960.00,0.2004
9959.00,0.2003
9958.00,0.2003
9957.00,0.2003
9956.00,0.2004
9955.00,0.2004
9954.00,0.2003
9953.00,0.2003
9952.00,0.2003
9951.00,0.2003
9950.00,0.2004
9949.00,0.2006
9948.00,0.2007
9947.00,0.2008
9946.00,0.2007
9945.00,0.2006
9944.00,0.2004
9943.00,0.2003
9942.00,0.2003
9941.00,0.2004
9940.00,0.2005
9939.00,0.2007
9938.00,0.2007
9937.00,0.2006
9936.00,0.2005
9935.00,0.2004
9934.00,0.2003
9933.00,0.2003
9932.00,0.2004
9931.00,0.2005
9930.00,0.2004
9929.00,0.2003
9928.00,0.2002
9927.00,0.2002
9926.00,0.2002
9925.00,0.2002
9924.00,0.2004
9923.00,0.2005
9922.00,0.2007
9921.00,0.2008
9920.00,0.2009
9919.00,0.2009
9918.00,0.2009
9917.00,0.2009
9916.00,0.2008
9915.00,0.2008
9914.00,0.2008
9913.00,0.2008
9912.00,0.2008
9911.00,0.2007
9910.00,0.2007
9909.00,0.2006
9908.00,0.2005
9907.00,0.2004
9906.00,0.2005
9905.00,0.2006
9904.00,0.2006
9903.00,0.2006
9902.00,0.2004
9901.00,0.2002
9900.00,0.2001
9899.00,0.2002
9898.00,0.2003
9897.00,0.2004
9896.00,0.2003
9895.00,0.2002
9894.00,0.2001
9893.00,0.2002
9892.00,0.2003
9891.00,0.2004
9890.00,0.2004
9889.00,0.2003
9888.00,0.2003
9887.00,0.2002
9886.00,0.2003
9885.00,0.2003
9884.00,0.2003
9883.00,0.2003
9882.00,0.2003
9881.00,0.2003
9880.00,0.2003
9879.00,0.2003
9878.00,0.2003
9877.00,0.2002
9876.00,0.2001
9875.00,0.2001
9874.00,0.2001
9873.00,0.2002
9872.00,0.2003
9871.00,0.2003
9870.00,0.2004
9869.00,0.2005
9868.00,0.2006
9867.00,0.2006
9866.00,0.2006
9865.00,0.2006
9864.00,0.2005
9863.00,0.2004
9862.00,0.2004
9861.00,0.2004
9860.00,0.2004
9859.00,0.2004
9858.00,0.2004
9857.00,0.2004
9856.00,0.2004
9855.00,0.2004
9854.00,0.2004
9853.00,0.2003
9852.00,0.2002
9851.00,0.2001
9850.00,0.2001
9849.00,0.2001
9848.00,0.2000
9847.00,0.2000
9846.00,0.1999
9845.00,0.1999
9844.00,0.2000
9843.00,0.2001
9842.00,0.2003
9841.00,0.2003
9840.00,0.2003
9839.00,0.2001
9838.00,0.2000
9837.00,0.1999
9836.00,0.1999
9835.00,0.2000
9834.00,0.2000
9833.00,0.1999
9832.00,0.1998
9831.00,0.1997
9830.00,0.1997
9829.00,0.1998
9828.00,0.2000
9827.00,0.2001
9826.00,0.2001
9825.00,0.2001
9824.00,0.2001
9823.00,0.2001
9822.00,0.2002
9821.00,0.2004
9820.00,0.2005
9819.00,0.2004
9818.00,0.2003
9817.00,0.2003
9816.00,0.2003
9815.00,0.2003
9814.00,0.2004
9813.00,0.2004
9812.00,0.2003
9811.00,0.2002
9810.00,0.2001
9809.00,0.2000
9808.00,0.2000
9807.00,0.1999
9806.00,0.1999
9805.00,0.2000
9804.00,0.2000
9803.00,0.1999
9802.00,0.1998
9801.00,0.1996
9800.00,0.1995
9799.00,0.1995
9798.00,0.1996
9797.00,0.1997
9796.00,0.1998
9795.00,0.1998
9794.00,0.1997
9793.00,0.1996
9792.00,0.1994
9791.00,0.1993
9790.00,0.1992
9789.00,0.1992
9788.00,0.1993
9787.00,0.1994
9786.00,0.1995
9785.00,0.1995
9784.00,0.1994
9783.00,0.1993
9782.00,0.1993
9781.00,0.1995
9780.00,0.1998
9779.00,0.2001
9778.00,0.2001
9777.00,0.1999
9776.00,0.1997
9775.00,0.1996
9774.00,0.1997
9773.00,0.1999
9772.00,0.2001
9771.00,0.2001
9770.00,0.2000
9769.00,0.1999
9768.00,0.1998
9767.00,0.1999
9766.00,0.2000
9765.00,0.2001
9764.00,0.2000
9763.00,0.1999
9762.00,0.1997
9761.00,0.1996
9760.00,0.1996
9759.00,0.1995
9758.00,0.1995
9757.00,0.1994
9756.00,0.1993
9755.00,0.1994
9754.00,0.1995
9753.00,0.1996
9752.00,0.1997
9751.00,0.1997
9750.00,0.1996
9749.00,0.1995
9748.00,0.1995
9747.00,0.1997
9746.00,0.1998
9745.00,0.1998
9744.00,0.1996
9743.00,0.1993
9742.00,0.1991
9741.00,0.1990
9740.00,0.1992
9739.00,0.1993
9738.00,0.1994
9737.00,0.1994
9736.00,0.1993
9735.00,0.1992
9734.00,0.1992
9733.00,0.1993
9732.00,0.1994
9731.00,0.1994
9730.00,0.1994
9729.00,0.1993
9728.00,0.1992
9727.00,0.1992
9726.00,0.1992
9725.00,0.1992
9724.00,0.1992
9723.00,0.1992
9722.00,0.1992
9721.00,0.1992
9720.00,0.1992
9719.00,0.1992
9718.00,0.1992
9717.00,0.1993
9716.00,0.1993
9715.00,0.1993
9714.00,0.1993
9713.00,0.1994
9712.00,0.1994
9711.00,0.1993
9710.00,0.1992
9709.00,0.1991
9708.00,0.1989
9707.00,0.1989
9706.00,0.1988
9705.00,0.1988
9704.00,0.1988
9703.00,0.1988
9702.00,0.1989
9701.00,0.1989
9700.00,0.1989
9699.00,0.1990
9698.00,0.1991
9697.00,0.1991
9696.00,0.1991
9695.00,0.1991
9694.00,0.1990
9693.00,0.1989
9692.00,0.1988
9691.00,0.1989
9690.00,0.1989
9689.00,0.1990
9688.00,0.1990
9687.00,0.1991
9686.00,0.1992
9685.00,0.1993
9684.00,0.1993
9683.00,0.1992
9682.00,0.1990
9681.00,0.1989
9680.00,0.1988
9679.00,0.1988
9678.00,0.1989
9677.00,0.1990
9676.00,0.1990
9675.00,0.1990
9674.00,0.1990
9673.00,0.1991
9672.00,0.1992
9671.00,0.1992
9670.00,0.1991
9669.00,0.1989
9668.00,0.1988
9667.00,0.1986
9666.00,0.1985
9665.00,0.1984
9664.00,0.1983
9663.00,0.1984
9662.00,0.1984
9661.00,0.1985
9660.00,0.1985
9659.00,0.1985
9658.00,0.1985
9657.00,0.1986
9656.00,0.1987
9655.00,0.1986
9654.00,0.1985
9653.00,0.1982
9652.00,0.1981
9651.00,0.1981
9650.00,0.1982
9649.00,0.1984
9648.00,0.1985
9647.00,0.1985
9646.00,0.1984
9645.00,0.1983
9644.00,0.1982
9643.00,0.1983
9642.00,0.1983
9641.00,0.1983
9640.00,0.1983
9639.00,0.1982
9638.00,0.1982
9637.00,0.1982
9636.00,0.1983
9635.00,0.1982
9634.00,0.1982
9633.00,0.1981
9632.00,0.1982
9631.00,0.1983
9630.00,0.1983
9629.00,0.1983
9628.00,0.1982
9627.00,0.1982
9626.00,0.1983
9625.00,0.1985
9624.00,0.1986
9623.00,0.1987
9622.00,0.1986
9621.00,0.1984
9620.00,0.1984
9619.00,0.1985
9618.00,0.1986
9617.00,0.1988
9616.00,0.1988
9615.00,0.1987
9614.00,0.1986
9613.00,0.1986
9612.00,0.1986
9611.00,0.1987
9610.00,0.1986
9609.00,0.1984
9608.00,0.1982
9607.00,0.1980
9606.00,0.1980
9605.00,0.1981
9604.00,0.1981
9603.00,0.1980
9602.00,0.1979
9601.00,0.1979
9600.00,0.1978
9599.00,0.1979
9598.00,0.1978
9597.00,0.1978
9596.00,0.1978
9595.00,0.1978
9594.00,0.1978
9593.00,0.1978
9592.00,0.1979
9591.00,0.1979
9590.00,0.1979
9589.00,0.1979
9588.00,0.1979
9587.00,0.1977
9586.00,0.1975
9585.00,0.1972
9584.00,0.1970
9583.00,0.1969
9582.00,0.1970
9581.00,0.1971
9580.00,0.1972
9579.00,0.1973
9578.00,0.1973
9577.00,0.1973
9576.00,0.1973
9575.00,0.1974
9574.00,0.1975
9573.00,0.1976
9572.00,0.1976
9571.00,0.1976
9570.00,0.1974
9569.00,0.1973
9568.00,0.1973
9567.00,0.1973
9566.00,0.1974
9565.00,0.1975
9564.00,0.1976
9563.00,0.1977
9562.00,0.1977
9561.00,0.1977
9560.00,0.1977
9559.00,0.1976
9558.00,0.1976
9557.00,0.1976
9556.00,0.1977
9555.00,0.1977
9554.00,0.1977
9553.00,0.1976
9552.00,0.1974
9551.00,0.1974
9550.00,0.1974
9549.00,0.1975
9548.00,0.1975
9547.00,0.1975
9546.00,0.1974
9545.00,0.1973
9544.00,0.1973
9543.00,0.1973
9542.00,0.1974
9541.00,0.1974
9540.00,0.1975
9539.00,0.1975
9538.00,0.1975
9537.00,0.1974
9536.00,0.1974
9535.00,0.1974
9534.00,0.1974
9533.00,0.1974
9532.00,0.1974
9531.00,0.1974
9530.00,0.1974
9529.00,0.1974
9528.00,0.1974
9527.00,0.1974
9526.00,0.1974
9525.00,0.1974
9524.00,0.1974
9523.00,0.1974
9522.00,0.1973
9521.00,0.1972
9520.00,0.1970
9519.00,0.1970
9518.00,0.1970
9517.00,0.1970
9516.00,0.1971
9515.00,0.1971
9514.00,0.1971
9513.00,0.1971
9512.00,0.1971
9511.00,0.1972
9510.00,0.1971
9509.00,0.1971
9508.00,0.1971
9507.00,0.1971
9506.00,0.1971
9505.00,0.1970
9504.00,0.1969
9503.00,0.1968
9502.00,0.1967
9501.00,0.1966
9500.00,0.1966
9499.00,0.1967
9498.00,0.1967
9497.00,0.1967
9496.00,0.1967
9495.00,0.1966
9494.00,0.1967
9493.00,0.1967
9492.00,0.1968
9491.00,0.1969
9490.00,0.1969
9489.00,0.1969
9488.00,0.1970
9487.00,0.1970
9486.00,0.1971
9485.00,0.1971
9484.00,0.1971
9483.00,0.1972
9482.00,0.1972
9481.00,0.1972
9480.00,0.1971
9479.00,0.1970
9478.00,0.1969
9477.00,0.1968
9476.00,0.1966
9475.00,0.1965
9474.00,0.1964
9473.00,0.1963
9472.00,0.1963
9471.00,0.1963
9470.00,0.1964
9469.00,0.1964
9468.00,0.1964
9467.00,0.1964
9466.00,0.1964
9465.00,0.1965
9464.00,0.1966
9463.00,0.1965
9462.00,0.1964
9461.00,0.1963
9460.00,0.1963
9459.00,0.1963
9458.00,0.1964
9457.00,0.1965
9456.00,0.1965
9455.00,0.1964
9454.00,0.1963
9453.00,0.1963
9452.00,0.1963
9451.00,0.1964
9450.00,0.1965
9449.00,0.1964
9448.00,0.1963
9447.00,0.1961
9446.00,0.1959
9445.00,0.1959
9444.00,0.1960
9443.00,0.1961
9442.00,0.1962
9441.00,0.1961
9440.00,0.1960
9439.00,0.1959
9438.00,0.1959
9437.00,0.1960
9436.00,0.1961
9435.00,0.1962
9434.00,0.1962
9433.00,0.1962
9432.00,0.1962
9431.00,0.1962
9430.00,0.1962
9429.00,0.1962
9428.00,0.1962
9427.00,0.1962
9426.00,0.1962
9425.00,0.1961
9424.00,0.1959
9423.00,0.1959
9422.00,0.1959
9421.00,0.1961
9420.00,0.1963
9419.00,0.1963
9418.00,0.1963
9417.00,0.1963
9416.00,0.1962
9415.00,0.1962
9414.00,0.1962
9413.00,0.1961
9412.00,0.1960
9411.00,0.1960
9410.00,0.1961
9409.00,0.1961
9408.00,0.1961
9407.00,0.1959
9406.00,0.1958
9405.00,0.1957
9404.00,0.1956
9403.00,0.1956
9402.00,0.1954
9401.00,0.1953
9400.00,0.1951
9399.00,0.1951
9398.00,0.1952
9397.00,0.1953
9396.00,0.1954
9395.00,0.1955
9394.00,0.1956
9393.00,0.1958
9392.00,0.1959
9391.00,0.1959
9390.00,0.1958
9389.00,0.1956
9388.00,0.1955
9387.00,0.1955
9386.00,0.1956
9385.00,0.1956
9384.00,0.1955
9383.00,0.1955
9382.00,0.1954
9381.00,0.1955
9380.00,0.1956
9379.00,0.1957
9378.00,0.1957
9377.00,0.1956
9376.00,0.1955
9375.00,0.1954
9374.00,0.1954
9373.00,0.1955
9372.00,0.1955
9371.00,0.1955
9370.00,0.1954
9369.00,0.1954
9368.00,0.1954
9367.00,0.1956
9366.00,0.1957
9365.00,0.1957
9364.00,0.1957
9363.00,0.1957
9362.00,0.1957
9361.00,0.1958
9360.00,0.1958
9359.00,0.1958
9358.00,0.1958
9357.00,0.1957
9356.00,0.1956
9355.00,0.1957
9354.00,0.1957
9353.00,0.1957
9352.00,0.1956
9351.00,0.1954
9350.00,0.1953
9349.00,0.1952
9348.00,0.1953
9347.00,0.1954
9346.00,0.1955
9345.00,0.1956
9344.00,0.1955
9343.00,0.1955
9342.00,0.1956
9341.00,0.1957
9340.00,0.1959
9339.00,0.1960
9338.00,0.1959
9337.00,0.1958
9336.00,0.1955
9335.00,0.1954
9334.00,0.1953
9333.00,0.1953
9332.00,0.1953
9331.00,0.1951
9330.00,0.1950
9329.00,0.1948
9328.00,0.1948
9327.00,0.1949
9326.00,0.1950
9325.00,0.1950
9324.00,0.1950
9323.00,0.1949
9322.00,0.1949
9321.00,0.1950
9320.00,0.1950
9319.00,0.1951
9318.00,0.1951
9317.00,0.1951
9316.00,0.1951
9315.00,0.1953
9314.00,0.1954
9313.00,0.1955
9312.00,0.1955
9311.00,0.1955
9310.00,0.1955
9309.00,0.1955
9308.00,0.1955
9307.00,0.1954
9306.00,0.1953
9305.00,0.1952
9304.00,0.1950
9303.00,0.1950
9302.00,0.1950
9301.00,0.1950
9300.00,0.1950
9299.00,0.1949
9298.00,0.1948
9297.00,0.1947
9296.00,0.1947
9295.00,0.1948
9294.00,0.1949
9293.00,0.1949
9292.00,0.1950
9291.00,0.1950
9290.00,0.1951
9289.00,0.1952
9288.00,0.1953
9287.00,0.1954
9286.00,0.1954
9285.00,0.1954
9284.00,0.1954
9283.00,0.1953
9282.00,0.1953
9281.00,0.1952
9280.00,0.1952
9279.00,0.1951
9278.00,0.1951
9277.00,0.1950
9276.00,0.1949
9275.00,0.1948
9274.00,0.1948
9273.00,0.1948
9272.00,0.1949
9271.00,0.1950
9270.00,0.1950
9269.00,0.1951
9268.00,0.1952
9267.00,0.1953
9266.00,0.1953
9265.00,0.1953
9264.00,0.1952
9263.00,0.1950
9262.00,0.1949
9261.00,0.1947
9260.00,0.1946
9259.00,0.1944
9258.00,0.1944
9257.00,0.1944
9256.00,0.1945
9255.00,0.1945
9254.00,0.1946
9253.00,0.1945
9252.00,0.1946
9251.00,0.1946
9250.00,0.1947
9249.00,0.1948
9248.00,0.1948
9247.00,0.1949
9246.00,0.1949
9245.00,0.1950
9244.00,0.1950
9243.00,0.1950
9242.00,0.1949
9241.00,0.1949
9240.00,0.1948
9239.00,0.1947
9238.00,0.1946
9237.00,0.1945
9236.00,0.1943
9235.00,0.1942
9234.00,0.1941
9233.00,0.1942
9232.00,0.1943
9231.00,0.1943
9230.00,0.1943
9229.00,0.1943
9228.00,0.1943
9227.00,0.1944
9226.00,0.1944
9225.00,0.1945
9224.00,0.1944
9223.00,0.1943
9222.00,0.1942
9221.00,0.1942
9220.00,0.1942
9219.00,0.1943
9218.00,0.1943
9217.00,0.1943
9216.00,0.1942
9215.00,0.1942
9214.00,0.1943
9213.00,0.1943
9212.00,0.1944
9211.00,0.1944
9210.00,0.1944
9209.00,0.1943
9208.00,0.1943
9207.00,0.1943
9206.00,0.1943
9205.00,0.1942
9204.00,0.1942
9203.00,0.1942
9202.00,0.1942
9201.00,0.1942
9200.00,0.1942
9199.00,0.1942
9198.00,0.1941
9197.00,0.1941
9196.00,0.1941
9195.00,0.1941
9194.00,0.1941
9193.00,0.1940
9192.00,0.1940
9191.00,0.1940
9190.00,0.1940
9189.00,0.1940
9188.00,0.1940
9187.00,0.1940
9186.00,0.1940
9185.00,0.1941
9184.00,0.1941
9183.00,0.1941
9182.00,0.1941
9181.00,0.1940
9180.00,0.1940
9179.00,0.1940
9178.00,0.1940
9177.00,0.1940
9176.00,0.1940
9175.00,0.1940
9174.00,0.1941
9173.00,0.1942
9172.00,0.1943
9171.00,0.1943
9170.00,0.1943
9169.00,0.1943
9168.00,0.1943
9167.00,0.1943
9166.00,0.1942
9165.00,0.1940
9164.00,0.1939
9163.00,0.1938
9162.00,0.1938
9161.00,0.1938
9160.00,0.1938
9159.00,0.1937
9158.00,0.1937
9157.00,0.1939
9156.00,0.1940
9155.00,0.1941
9154.00,0.1940
9153.00,0.1939
9152.00,0.1938
9151.00,0.1937
9150.00,0.1937
9149.00,0.1936
9148.00,0.1936
9147.00,0.1936
9146.00,0.1936
9145.00,0.1936
9144.00,0.1937
9143.00,0.1938
9142.00,0.1938
9141.00,0.1938
9140.00,0.1938
9139.00,0.1938
9138.00,0.1938
9137.00,0.1938
9136.00,0.1937
9135.00,0.1936
9134.00,0.1936
9133.00,0.1936
9132.00,0.1937
9131.00,0.1937
9130.00,0.1937
9129.00,0.1936
9128.00,0.1936
9127.00,0.1935
9126.00,0.1935
9125.00,0.1935
9124.00,0.1935
9123.00,0.1936
9122.00,0.1935
9121.00,0.1934
9120.00,0.1933
9119.00,0.1932
9118.00,0.1932
9117.00,0.1933
9116.00,0.1933
9115.00,0.1933
9114.00,0.1933
9113.00,0.1933
9112.00,0.1933
9111.00,0.1934
9110.00,0.1935
9109.00,0.1935
9108.00,0.1934
9107.00,0.1933
9106.00,0.1933
9105.00,0.1932
9104.00,0.1932
9103.00,0.1932
9102.00,0.1932
9101.00,0.1932
9100.00,0.1933
9099.00,0.1934
9098.00,0.1934
9097.00,0.1934
9096.00,0.1934
9095.00,0.1934
9094.00,0.1934
9093.00,0.1933
9092.00,0.1933
9091.00,0.1933
9090.00,0.1932
9089.00,0.1931
9088.00,0.1931
9087.00,0.1931
9086.00,0.1932
9085.00,0.1933
9084.00,0.1934
9083.00,0.1934
9082.00,0.1934
9081.00,0.1933
9080.00,0.1933
9079.00,0.1932
9078.00,0.1932
9077.00,0.1932
9076.00,0.1932
9075.00,0.1931
9074.00,0.1931
9073.00,0.1930
9072.00,0.1929
9071.00,0.1928
9070.00,0.1929
9069.00,0.1929
9068.00,0.1929
9067.00,0.1929
9066.00,0.1929
9065.00,0.1929
9064.00,0.1929
9063.00,0.1930
9062.00,0.1931
9061.00,0.1932
9060.00,0.1932
9059.00,0.1933
9058.00,0.1933
9057.00,0.1933
9056.00,0.1933
9055.00,0.1933
9054.00,0.1932
9053.00,0.1931
9052.00,0.1930
9051.00,0.1930
9050.00,0.1930
9049.00,0.1929
9048.00,0.1929
9047.00,0.1928
9046.00,0.1928
9045.00,0.1929
9044.00,0.1930
9043.00,0.1932
9042.00,0.1932
9041.00,0.1932
9040.00,0.1932
9039.00,0.1931
9038.00,0.1931
9037.00,0.1930
9036.00,0.1930
9035.00,0.1929
9034.00,0.1928
9033.00,0.1928
9032.00,0.1928
9031.00,0.1928
9030.00,0.1927
9029.00,0.1927
9028.00,0.1927
9027.00,0.1927
9026.00,0.1927
9025.00,0.1928
9024.00,0.1927
9023.00,0.1926
9022.00,0.1925
9021.00,0.1925
9020.00,0.1926
9019.00,0.1927
9018.00,0.1929
9017.00,0.1929
9016.00,0.1929
9015.00,0.1929
9014.00,0.1929
9013.00,0.1928
9012.00,0.1928
9011.00,0.1927
9010.00,0.1926
9009.00,0.1924
9008.00,0.1922
9007.00,0.1920
9006.00,0.1920
9005.00,0.1920
9004.00,0.1922
9003.00,0.1923
9002.00,0.1923
9001.00,0.1924
9000.00,0.1924
8999.00,0.1925
8998.00,0.1925
8997.00,0.1926
8996.00,0.1926
8995.00,0.1926
8994.00,0.1925
8993.00,0.1925
8992.00,0.1925
8991.00,0.1926
8990.00,0.1927
8989.00,0.1928
8988.00,0.1929
8987.00,0.1930
8986.00,0.1930
8985.00,0.1929
8984.00,0.1929
8983.00,0.1928
8982.00,0.1927
8981.00,0.1925
8980.00,0.1924
8979.00,0.1923
8978.00,0.1923
8977.00,0.1923
8976.00,0.1924
8975.00,0.1926
8974.00,0.1927
8973.00,0.1927
8972.00,0.1928
8971.00,0.1929
8970.00,0.1930
8969.00,0.1931
8968.00,0.1930
8967.00,0.1928
8966.00,0.1927
8965.00,0.1925
8964.00,0.1925
8963.00,0.1924
8962.00,0.1924
8961.00,0.1924
8960.00,0.1923
8959.00,0.1922
8958.00,0.1922
8957.00,0.1923
8956.00,0.1924
8955.00,0.1926
8954.00,0.1927
8953.00,0.1927
8952.00,0.1926
8951.00,0.1926
8950.00,0.1926
8949.00,0.1926
8948.00,0.1926
8947.00,0.1926
8946.00,0.1926
8945.00,0.1926
8944.00,0.1925
8943.00,0.1925
8942.00,0.1926
8941.00,0.1926
8940.00,0.1927
8939.00,0.1928
8938.00,0.1928
8937.00,0.1928
8936.00,0.1929
8935.00,0.1929
8934.00,0.1930
8933.00,0.1930
8932.00,0.1930
8931.00,0.1930
8930.00,0.1929
8929.00,0.1929
8928.00,0.1928
8927.00,0.1927
8926.00,0.1926
8925.00,0.1926
8924.00,0.1926
8923.00,0.1926
8922.00,0.1927
8921.00,0.1927
8920.00,0.1927
8919.00,0.1927
8918.00,0.1926
8917.00,0.1926
8916.00,0.1926
8915.00,0.1926
8914.00,0.1926
8913.00,0.1927
8912.00,0.1928
8911.00,0.1928
8910.00,0.1927
8909.00,0.1927
8908.00,0.1928
8907.00,0.1929
8906.00,0.1930
8905.00,0.1929
8904.00,0.1928
8903.00,0.1927
8902.00,0.1926
8901.00,0.1925
8900.00,0.1925
8899.00,0.1925
8898.00,0.1925
8897.00,0.1926
8896.00,0.1925
8895.00,0.1925
8894.00,0.1925
8893.00,0.1925
8892.00,0.1926
8891.00,0.1927
8890.00,0.1928
8889.00,0.1929
8888.00,0.1928
8887.00,0.1928
8886.00,0.1928
8885.00,0.1929
8884.00,0.1931
8883.00,0.1931
8882.00,0.1930
8881.00,0.1929
8880.00,0.1928
8879.00,0.1927
8878.00,0.1927
8877.00,0.1928
8876.00,0.1928
8875.00,0.1928
8874.00,0.1927
8873.00,0.1928
8872.00,0.1928
8871.00,0.1929
8870.00,0.1929
8869.00,0.1929
8868.00,0.1929
8867.00,0.1929
8866.00,0.1929
8865.00,0.1929
8864.00,0.1930
8863.00,0.1930
8862.00,0.1930
8861.00,0.1929
8860.00,0.1930
8859.00,0.1930
8858.00,0.1931
8857.00,0.1932
8856.00,0.1932
8855.00,0.1932
8854.00,0.1932
8853.00,0.1932
8852.00,0.1932
8851.00,0.1933
8850.00,0.1934
8849.00,0.1934
8848.00,0.1934
8847.00,0.1934
8846.00,0.1934
8845.00,0.1933
8844.00,0.1932
8843.00,0.1932
8842.00,0.1932
8841.00,0.1933
8840.00,0.1933
8839.00,0.1932
8838.00,0.1932
8837.00,0.1932
8836.00,0.1934
8835.00,0.1935
8834.00,0.1936
8833.00,0.1937
8832.00,0.1937
8831.00,0.1937
8830.00,0.1937
8829.00,0.1937
8828.00,0.1937
8827.00,0.1937
8826.00,0.1937
8825.00,0.1937
8824.00,0.1937
8823.00,0.1938
8822.00,0.1939
8821.00,0.1940
8820.00,0.1941
8819.00,0.1941
8818.00,0.1942
8817.00,0.1943
8816.00,0.1944
8815.00,0.1945
8814.00,0.1943
8813.00,0.1942
8812.00,0.1941
8811.00,0.1940
8810.00,0.1940
8809.00,0.1941
8808.00,0.1941
8807.00,0.1941
8806.00,0.1942
8805.00,0.1943
8804.00,0.1945
8803.00,0.1946
8802.00,0.1946
8801.00,0.1946
8800.00,0.1945
8799.00,0.1943
8798.00,0.1942
8797.00,0.1942
8796.00,0.1942
8795.00,0.1944
8794.00,0.1945
8793.00,0.1945
8792.00,0.1945
8791.00,0.1946
8790.00,0.1947
8789.00,0.1948
8788.00,0.1948
8787.00,0.1948
8786.00,0.1947
8785.00,0.1947
8784.00,0.1947
8783.00,0.1948
8782.00,0.1948
8781.00,0.1948
8780.00,0.1948
8779.00,0.1949
8778.00,0.1950
8777.00,0.1951
8776.00,0.1952
8775.00,0.1952
8774.00,0.1952
8773.00,0.1953
8772.00,0.1954
8771.00,0.1955
8770.00,0.1956
8769.00,0.1956
8768.00,0.1955
8767.00,0.1956
8766.00,0.1957
8765.00,0.1958
8764.00,0.1959
8763.00,0.1959
8762.00,0.1959
8761.00,0.1959
8760.00,0.1959
8759.00,0.1959
8758.00,0.1960
8757.00,0.1959
8756.00,0.1959
8755.00,0.1959
8754.00,0.1960
8753.00,0.1961
8752.00,0.1962
8751.00,0.1963
8750.00,0.1964
8749.00,0.1964
8748.00,0.1965
8747.00,0.1965
8746.00,0.1966
8745.00,0.1967
8744.00,0.1968
8743.00,0.1968
8742.00,0.1967
8741.00,0.1967
8740.00,0.1967
8739.00,0.1968
8738.00,0.1969
8737.00,0.1968
8736.00,0.1968
8735.00,0.1967
8734.00,0.1968
8733.00,0.1969
8732.00,0.1970
8731.00,0.1970
8730.00,0.1970
8729.00,0.1971
8728.00,0.1972
8727.00,0.1974
8726.00,0.1975
8725.00,0.1975
8724.00,0.1975
8723.00,0.1975
8722.00,0.1976
8721.00,0.1977
8720.00,0.1978
8719.00,0.1978
8718.00,0.1978
8717.00,0.1978
8716.00,0.1979
8715.00,0.1979
8714.00,0.1979
8713.00,0.1979
8712.00,0.1979
8711.00,0.1979
8710.00,0.1979
8709.00,0.1980
8708.00,0.1981
8707.00,0.1982
8706.00,0.1983
8705.00,0.1984
8704.00,0.1985
8703.00,0.1986
8702.00,0.1987
8701.00,0.1987
8700.00,0.1987
8699.00,0.1986
8698.00,0.1987
8697.00,0.1988
8696.00,0.1989
8695.00,0.1990
8694.00,0.1990
8693.00,0.1990
8692.00,0.1991
8691.00,0.1991
8690.00,0.1992
8689.00,0.1992
8688.00,0.1992
8687.00,0.1992
8686.00,0.1992
8685.00,0.1993
8684.00,0.1994
8683.00,0.1996
8682.00,0.1998
8681.00,0.1999
8680.00,0.2000
8679.00,0.2001
8678.00,0.2001
8677.00,0.2002
8676.00,0.2002
8675.00,0.2003
8674.00,0.2003
8673.00,0.2003
8672.00,0.2003
8671.00,0.2003
8670.00,0.2004
8669.00,0.2005
8668.00,0.2006
8667.00,0.2007
8666.00,0.2007
8665.00,0.2008
8664.00,0.2009
8663.00,0.2010
8662.00,0.2012
8661.00,0.2014
8660.00,0.2015
8659.00,0.2016
8658.00,0.2017
8657.00,0.2018
8656.00,0.2019
8655.00,0.2020
8654.00,0.2019
8653.00,0.2018
8652.00,0.2019
8651.00,0.2019
8650.00,0.2020
8649.00,0.2021
8648.00,0.2021
8647.00,0.2021
8646.00,0.2022
8645.00,0.2023
8644.00,0.2024
8643.00,0.2025
8642.00,0.2027
8641.00,0.2027
8640.00,0.2028
8639.00,0.2028
8638.00,0.2029
8637.00,0.2030
8636.00,0.2031
8635.00,0.2032
8634.00,0.2033
8633.00,0.2033
8632.00,0.2033
8631.00,0.2034
8630.00,0.2034
8629.00,0.2035
8628.00,0.2035
8627.00,0.2035
8626.00,0.2036
8625.00,0.2036
8624.00,0.2037
8623.00,0.2039
8622.00,0.2040
8621.00,0.2041
8620.00,0.2042
8619.00,0.2042
8618.00,0.2043
8617.00,0.2043
8616.00,0.2043
8615.00,0.2043
8614.00,0.2044
8613.00,0.2044
8612.00,0.2045
8611.00,0.2046
8610.00,0.2048
8609.00,0.2049
8608.00,0.2050
8607.00,0.2050
8606.00,0.2051
8605.00,0.2051
8604.00,0.2052
8603.00,0.2052
8602.00,0.2053
8601.00,0.2053
8600.00,0.2054
8599.00,0.2055
8598.00,0.2056
8597.00,0.2057
8596.00,0.2057
8595.00,0.2058
8594.00,0.2059
8593.00,0.2060
8592.00,0.2060
8591.00,0.2060
8590.00,0.2060
8589.00,0.2060
8588.00,0.2061
8587.00,0.2062
8586.00,0.2063
8585.00,0.2062
8584.00,0.2062
8583.00,0.2063
8582.00,0.2064
8581.00,0.2065
8580.00,0.2066
8579.00,0.2065
8578.00,0.2065
8577.00,0.2066
8576.00,0.2067
8575.00,0.2068
8574.00,0.2068
8573.00,0.2068
8572.00,0.2069
8571.00,0.2071
8570.00,0.2073
8569.00,0.2073
8568.00,0.2073
8567.00,0.2073
8566.00,0.2074
8565.00,0.2075
8564.00,0.2077
8563.00,0.2078
8562.00,0.2079
8561.00,0.2079
8560.00,0.2080
8559.00,0.2081
8558.00,0.2083
8557.00,0.2084
8556.00,0.2085
8555.00,0.2085
8554.00,0.2085
8553.00,0.2084
8552.00,0.2084
8551.00,0.2083
8550.00,0.2083
8549.00,0.2083
8548.00,0.2084
8547.00,0.2085
8546.00,0.2085
8545.00,0.2086
8544.00,0.2087
8543.00,0.2089
8542.00,0.2090
8541.00,0.2091
8540.00,0.2091
8539.00,0.2090
8538.00,0.2090
8537.00,0.2091
8536.00,0.2091
8535.00,0.2092
8534.00,0.2093
8533.00,0.2094
8532.00,0.2096
8531.00,0.2097
8530.00,0.2098
8529.00,0.2099
8528.00,0.2098
8527.00,0.2098
8526.00,0.2099
8525.00,0.2099
8524.00,0.2100
8523.00,0.2100
8522.00,0.2100
8521.00,0.2100
8520.00,0.2100
8519.00,0.2101
8518.00,0.2101
8517.00,0.2102
8516.00,0.2102
8515.00,0.2102
8514.00,0.2102
8513.00,0.2102
8512.00,0.2104
8511.00,0.2105
8510.00,0.2107
8509.00,0.2108
8508.00,0.2108
8507.00,0.2108
8506.00,0.2108
8505.00,0.2108
8504.00,0.2109
8503.00,0.2110
8502.00,0.2110
8501.00,0.2110
8500.00,0.2110
8499.00,0.2111
8498.00,0.2113
8497.00,0.2114
8496.00,0.2115
8495.00,0.2115
8494.00,0.2115
8493.00,0.2115
8492.00,0.2116
8491.00,0.2118
8490.00,0.2118
8489.00,0.2118
8488.00,0.2118
8487.00,0.2117
8486.00,0.2118
8485.00,0.2119
8484.00,0.2119
8483.00,0.2119
8482.00,0.2119
8481.00,0.2119
8480.00,0.2120
8479.00,0.2121
8478.00,0.2123
8477.00,0.2124
8476.00,0.2125
8475.00,0.2125
8474.00,0.2126
8473.00,0.2128
8472.00,0.2128
8471.00,0.2129
8470.00,0.2129
8469.00,0.2130
8468.00,0.2131
8467.00,0.2131
8466.00,0.2131
8465.00,0.2130
8464.00,0.2129
8463.00,0.2129
8462.00,0.2130
8461.00,0.2131
8460.00,0.2133
8459.00,0.2134
8458.00,0.2134
8457.00,0.2134
8456.00,0.2135
8455.00,0.2136
8454.00,0.2136
8453.00,0.2137
8452.00,0.2137
8451.00,0.2137
8450.00,0.2137
8449.00,0.2138
8448.00,0.2139
8447.00,0.2140
8446.00,0.2141
8445.00,0.2143
8444.00,0.2144
8443.00,0.2144
8442.00,0.2144
8441.00,0.2144
8440.00,0.2144
8439.00,0.2144
8438.00,0.2145
8437.00,0.2146
8436.00,0.2146
8435.00,0.2146
8434.00,0.2146
8433.00,0.2146
8432.00,0.2147
8431.00,0.2147
8430.00,0.2147
8429.00,0.2147
8428.00,0.2148
8427.00,0.2148
8426.00,0.2149
8425.00,0.2150
8424.00,0.2151
8423.00,0.2152
8422.00,0.2152
8421.00,0.2153
8420.00,0.2153
8419.00,0.2153
8418.00,0.2153
8417.00,0.2153
8416.00,0.2153
8415.00,0.2154
8414.00,0.2155
8413.00,0.2155
8412.00,0.2155
8411.00,0.2156
8410.00,0.2157
8409.00,0.2157
8408.00,0.2158
8407.00,0.2158
8406.00,0.2158
8405.00,0.2158
8404.00,0.2158
8403.00,0.2159
8402.00,0.2159
8401.00,0.2160
8400.00,0.2160
8399.00,0.2160
8398.00,0.2160
8397.00,0.2160
8396.00,0.2160
8395.00,0.2161
8394.00,0.2161
8393.00,0.2162
8392.00,0.2162
8391.00,0.2162
8390.00,0.2162
8389.00,0.2162
8388.00,0.2163
8387.00,0.2163
8386.00,0.2163
8385.00,0.2163
8384.00,0.2163
8383.00,0.2163
8382.00,0.2163
8381.00,0.2164
8380.00,0.2164
8379.00,0.2163
8378.00,0.2164
8377.00,0.2164
8376.00,0.2165
8375.00,0.2165
8374.00,0.2165
8373.00,0.2166
8372.00,0.2166
8371.00,0.2167
8370.00,0.2166
8369.00,0.2165
8368.00,0.2165
8367.00,0.2164
8366.00,0.2163
8365.00,0.2163
8364.00,0.2163
8363.00,0.2164
8362.00,0.2165
8361.00,0.2165
8360.00,0.2165
8359.00,0.2165
8358.00,0.2165
8357.00,0.2165
8356.00,0.2166
8355.00,0.2167
8354.00,0.2167
8353.00,0.2168
8352.00,0.2169
8351.00,0.2170
8350.00,0.2171
8349.00,0.2172
8348.00,0.2172
8347.00,0.2172
8346.00,0.2172
8345.00,0.2172
8344.00,0.2172
8343.00,0.2171
8342.00,0.2171
8341.00,0.2170
8340.00,0.2170
8339.00,0.2170
8338.00,0.2169
8337.00,0.2169
8336.00,0.2168
8335.00,0.2168
8334.00,0.2168
8333.00,0.2169
8332.00,0.2170
8331.00,0.2171
8330.00,0.2171
8329.00,0.2171
8328.00,0.2170
8327.00,0.2170
8326.00,0.2170
8325.00,0.2170
8324.00,0.2169
8323.00,0.2168
8322.00,0.2168
8321.00,0.2168
8320.00,0.2168
8319.00,0.2169
8318.00,0.2170
8317.00,0.2169
8316.00,0.2169
8315.00,0.2169
8314.00,0.2170
8313.00,0.2171
8312.00,0.2172
8311.00,0.2172
8310.00,0.2172
8309.00,0.2172
8308.00,0.2172
8307.00,0.2173
8306.00,0.2173
8305.00,0.2173
8304.00,0.2173
8303.00,0.2172
8302.00,0.2172
8301.00,0.2171
8300.00,0.2172
8299.00,0.2172
8298.00,0.2173
8297.00,0.2173
8296.00,0.2172
8295.00,0.2171
8294.00,0.2171
8293.00,0.2171
8292.00,0.2170
8291.00,0.2170
8290.00,0.2168
8289.00,0.2168
8288.00,0.2167
8287.00,0.2167
8286.00,0.2168
8285.00,0.2169
8284.00,0.2169
8283.00,0.2170
8282.00,0.2170
8281.00,0.2170
8280.00,0.2171
8279.00,0.2171
8278.00,0.2171
8277.00,0.2171
8276.00,0.2171
8275.00,0.2170
8274.00,0.2170
8273.00,0.2170
8272.00,0.2170
8271.00,0.2170
8270.00,0.2170
8269.00,0.2169
8268.00,0.2169
8267.00,0.2168
8266.00,0.2168
8265.00,0.2168
8264.00,0.2168
8263.00,0.2167
8262.00,0.2167
8261.00,0.2168
8260.00,0.2168
8259.00,0.2169
8258.00,0.2170
8257.00,0.2170
8256.00,0.2170
8255.00,0.2170
8254.00,0.2169
8253.00,0.2168
8252.00,0.2167
8251.00,0.2166
8250.00,0.2165
8249.00,0.2164
8248.00,0.2163
8247.00,0.2163
8246.00,0.2163
8245.00,0.2163
8244.00,0.2163
8243.00,0.2162
8242.00,0.2162
8241.00,0.2162
8240.00,0.2162
8239.00,0.2162
8238.00,0.2162
8237.00,0.2162
8236.00,0.2162
8235.00,0.2162
8234.00,0.2162
8233.00,0.2162
8232.00,0.2161
8231.00,0.2161
8230.00,0.2161
8229.00,0.2160
8228.00,0.2160
8227.00,0.2160
8226.00,0.2159
8225.00,0.2159
8224.00,0.2159
8223.00,0.2159
8222.00,0.2159
8221.00,0.2159
8220.00,0.2158
8219.00,0.2158
8218.00,0.2157
8217.00,0.2156
8216.00,0.2156
8215.00,0.2157
8214.00,0.2157
8213.00,0.2157
8212.00,0.2156
8211.00,0.2156
8210.00,0.2156
8209.00,0.2156
8208.00,0.2156
8207.00,0.2155
8206.00,0.2155
8205.00,0.2154
8204.00,0.2153
8203.00,0.2152
8202.00,0.2152
8201.00,0.2152
8200.00,0.2152
8199.00,0.2152
8198.00,0.2152
8197.00,0.2152
8196.00,0.2152
8195.00,0.2152
8194.00,0.2151
8193.00,0.2151
8192.00,0.2151
8191.00,0.2150
8190.00,0.2150
8189.00,0.2150
8188.00,0.2150
8187.00,0.2151
8186.00,0.2151
8185.00,0.2151
8184.00,0.2150
8183.00,0.2150
8182.00,0.2149
8181.00,0.2148
8180.00,0.2148
8179.00,0.2147
8178.00,0.2146
8177.00,0.2145
8176.00,0.2145
8175.00,0.2145
8174.00,0.2145
8173.00,0.2145
8172.00,0.2144
8171.00,0.2144
8170.00,0.2143
8169.00,0.2143
8168.00,0.2142
8167.00,0.2142
8166.00,0.2141
8165.00,0.2141
8164.00,0.2141
8163.00,0.2141
8162.00,0.2140
8161.00,0.2140
8160.00,0.2140
8159.00,0.2139
8158.00,0.2139
8157.00,0.2138
8156.00,0.2138
8155.00,0.2138
8154.00,0.2139
8153.00,0.2140
8152.00,0.2140
8151.00,0.2141
8150.00,0.2141
8149.00,0.2141
8148.00,0.2140
8147.00,0.2140
8146.00,0.2139
8145.00,0.2138
8144.00,0.2137
8143.00,0.2136
8142.00,0.2135
8141.00,0.2135
8140.00,0.2134
8139.00,0.2134
8138.00,0.2133
8137.00,0.2133
8136.00,0.2133
8135.00,0.2132
8134.00,0.2132
8133.00,0.2132
8132.00,0.2132
8131.00,0.2132
8130.00,0.2132
8129.00,0.2132
8128.00,0.2131
8127.00,0.2131
8126.00,0.2131
8125.00,0.2130
8124.00,0.2130
8123.00,0.2129
8122.00,0.2129
8121.00,0.2129
8120.00,0.2129
8119.00,0.2128
8118.00,0.2128
8117.00,0.2128
8116.00,0.2128
8115.00,0.2128
8114.00,0.2127
8113.00,0.2126
8112.00,0.2125
8111.00,0.2125
8110.00,0.2125
8109.00,0.2124
8108.00,0.2122
8107.00,0.2122
8106.00,0.2122
8105.00,0.2122
8104.00,0.2122
8103.00,0.2120
8102.00,0.2119
8101.00,0.2119
8100.00,0.2119
8099.00,0.2120
8098.00,0.2120
8097.00,0.2120
8096.00,0.2119
8095.00,0.2120
8094.00,0.2120
8093.00,0.2121
8092.00,0.2120
8091.00,0.2120
8090.00,0.2119
8089.00,0.2118
8088.00,0.2117
8087.00,0.2116
8086.00,0.2116
8085.00,0.2115
8084.00,0.2115
8083.00,0.2114
8082.00,0.2114
8081.00,0.2114
8080.00,0.2114
8079.00,0.2114
8078.00,0.2113
8077.00,0.2112
8076.00,0.2111
8075.00,0.2110
8074.00,0.2110
8073.00,0.2109
8072.00,0.2109
8071.00,0.2108
8070.00,0.2108
8069.00,0.2108
8068.00,0.2109
8067.00,0.2109
8066.00,0.2110
8065.00,0.2110
8064.00,0.2110
8063.00,0.2109
8062.00,0.2109
8061.00,0.2109
8060.00,0.2109
8059.00,0.2109
8058.00,0.2109
8057.00,0.2108
8056.00,0.2107
8055.00,0.2107
8054.00,0.2106
8053.00,0.2106
8052.00,0.2105
8051.00,0.2105
8050.00,0.2105
8049.00,0.2105
8048.00,0.2104
8047.00,0.2104
8046.00,0.2104
8045.00,0.2104
8044.00,0.2103
8043.00,0.2103
8042.00,0.2102
8041.00,0.2102
8040.00,0.2102
8039.00,0.2102
8038.00,0.2102
8037.00,0.2102
8036.00,0.2103
8035.00,0.2103
8034.00,0.2102
8033.00,0.2102
8032.00,0.2101
8031.00,0.2101
8030.00,0.2101
8029.00,0.2101
8028.00,0.2101
8027.00,0.2101
8026.00,0.2101
8025.00,0.2100
8024.00,0.2100
8023.00,0.2100
8022.00,0.2100
8021.00,0.2100
8020.00,0.2099
8019.00,0.2098
8018.00,0.2097
8017.00,0.2097
8016.00,0.2097
8015.00,0.2097
8014.00,0.2097
8013.00,0.2097
8012.00,0.2096
8011.00,0.2095
8010.00,0.2094
8009.00,0.2094
8008.00,0.2094
8007.00,0.2094
8006.00,0.2094
8005.00,0.2093
8004.00,0.2093
8003.00,0.2092
8002.00,0.2092
8001.00,0.2093
8000.00,0.2092
7999.00,0.2092
7998.00,0.2092
7997.00,0.2091
7996.00,0.2091
7995.00,0.2091
7994.00,0.2091
7993.00,0.2091
7992.00,0.2091
7991.00,0.2091
7990.00,0.2090
7989.00,0.2089
7988.00,0.2089
7987.00,0.2089
7986.00,0.2089
7985.00,0.2089
7984.00,0.2089
7983.00,0.2088
7982.00,0.2088
7981.00,0.2088
7980.00,0.2088
7979.00,0.2087
7978.00,0.2087
7977.00,0.2088
7976.00,0.2088
7975.00,0.2088
7974.00,0.2087
7973.00,0.2086
7972.00,0.2086
7971.00,0.2086
7970.00,0.2086
7969.00,0.2085
7968.00,0.2084
7967.00,0.2083
7966.00,0.2082
7965.00,0.2082
7964.00,0.2082
7963.00,0.2083
7962.00,0.2083
7961.00,0.2083
7960.00,0.2082
7959.00,0.2082
7958.00,0.2081
7957.00,0.2081
7956.00,0.2081
7955.00,0.2080
7954.00,0.2079
7953.00,0.2078
7952.00,0.2078
7951.00,0.2079
7950.00,0.2079
7949.00,0.2079
7948.00,0.2079
7947.00,0.2079
7946.00,0.2079
7945.00,0.2078
7944.00,0.2077
7943.00,0.2076
7942.00,0.2075
7941.00,0.2075
7940.00,0.2076
7939.00,0.2076
7938.00,0.2077
7937.00,0.2078
7936.00,0.2078
7935.00,0.2079
7934.00,0.2079
7933.00,0.2079
7932.00,0.2078
7931.00,0.2078
7930.00,0.2077
7929.00,0.2076
7928.00,0.2076
7927.00,0.2077
7926.00,0.2077
7925.00,0.2078
7924.00,0.2078
7923.00,0.2077
7922.00,0.2077
7921.00,0.2076
7920.00,0.2075
7919.00,0.2074
7918.00,0.2074
7917.00,0.2074
7916.00,0.2073
7915.00,0.2073
7914.00,0.2072
7913.00,0.2073
7912.00,0.2073
7911.00,0.2073
7910.00,0.2072
7909.00,0.2071
7908.00,0.2070
7907.00,0.2070
7906.00,0.2070
7905.00,0.2070
7904.00,0.2070
7903.00,0.2070
7902.00,0.2070
7901.00,0.2070
7900.00,0.2071
7899.00,0.2071
7898.00,0.2071
7897.00,0.2070
7896.00,0.2070
7895.00,0.2069
7894.00,0.2069
7893.00,0.2068
7892.00,0.2067
7891.00,0.2067
7890.00,0.2068
7889.00,0.2068
7888.00,0.2068
7887.00,0.2068
7886.00,0.2068
7885.00,0.2068
7884.00,0.2067
7883.00,0.2066
7882.00,0.2065
7881.00,0.2065
7880.00,0.2065
7879.00,0.2065
7878.00,0.2065
7877.00,0.2066
7876.00,0.2066
7875.00,0.2066
7874.00,0.2065
7873.00,0.2065
7872.00,0.2064
7871.00,0.2063
7870.00,0.2062
7869.00,0.2061
7868.00,0.2061
7867.00,0.2061
7866.00,0.2060
7865.00,0.2060
7864.00,0.2060
7863.00,0.2060
7862.00,0.2060
7861.00,0.2060
7860.00,0.2059
7859.00,0.2059
7858.00,0.2058
7857.00,0.2059
7856.00,0.2059
7855.00,0.2059
7854.00,0.2059
7853.00,0.2059
7852.00,0.2059
7851.00,0.2059
7850.00,0.2059
7849.00,0.2058
7848.00,0.2058
7847.00,0.2057
7846.00,0.2057
7845.00,0.2057
7844.00,0.2057
7843.00,0.2057
7842.00,0.2057
7841.00,0.2057
7840.00,0.2057
7839.00,0.2057
7838.00,0.2056
7837.00,0.2056
7836.00,0.2055
7835.00,0.2054
7834.00,0.2054
7833.00,0.2054
7832.00,0.2054
7831.00,0.2054
7830.00,0.2054
7829.00,0.2053
7828.00,0.2053
7827.00,0.2053
7826.00,0.2052
7825.00,0.2052
7824.00,0.2051
7823.00,0.2050
7822.00,0.2050
7821.00,0.2050
7820.00,0.2050
7819.00,0.2049
7818.00,0.2049
7817.00,0.2049
7816.00,0.2049
7815.00,0.2049
7814.00,0.2048
7813.00,0.2047
7812.00,0.2047
7811.00,0.2047
7810.00,0.2048
7809.00,0.2048
7808.00,0.2048
7807.00,0.2047
7806.00,0.2047
7805.00,0.2046
7804.00,0.2046
7803.00,0.2045
7802.00,0.2044
7801.00,0.2043
7800.00,0.2043
7799.00,0.2043
7798.00,0.2043
7797.00,0.2043
7796.00,0.2043
7795.00,0.2042
7794.00,0.2042
7793.00,0.2042
7792.00,0.2041
7791.00,0.2041
7790.00,0.2040
7789.00,0.2039
7788.00,0.2038
7787.00,0.2038
7786.00,0.2038
7785.00,0.2038
7784.00,0.2038
7783.00,0.2038
7782.00,0.2038
7781.00,0.2038
7780.00,0.2038
7779.00,0.2039
7778.00,0.2039
7777.00,0.2039
7776.00,0.2039
7775.00,0.2038
7774.00,0.2038
7773.00,0.2037
7772.00,0.2036
7771.00,0.2036
7770.00,0.2035
7769.00,0.2035
7768.00,0.2034
7767.00,0.2033
7766.00,0.2033
7765.00,0.2033
7764.00,0.2033
7763.00,0.2033
7762.00,0.2033
7761.00,0.2033
7760.00,0.2032
7759.00,0.2032
7758.00,0.2031
7757.00,0.2030
7756.00,0.2030
7755.00,0.2029
7754.00,0.2029
7753.00,0.2028
7752.00,0.2028
7751.00,0.2028
7750.00,0.2028
7749.00,0.2027
7748.00,0.2027
7747.00,0.2027
7746.00,0.2026
7745.00,0.2026
7744.00,0.2025
7743.00,0.2024
7742.00,0.2024
7741.00,0.2024
7740.00,0.2024
7739.00,0.2023
7738.00,0.2023
7737.00,0.2023
7736.00,0.2023
7735.00,0.2023
7734.00,0.2023
7733.00,0.2023
7732.00,0.2022
7731.00,0.2022
7730.00,0.2022
7729.00,0.2022
7728.00,0.2022
7727.00,0.2022
7726.00,0.2021
7725.00,0.2020
7724.00,0.2020
7723.00,0.2020
7722.00,0.2020
7721.00,0.2020
7720.00,0.2020
7719.00,0.2019
7718.00,0.2019
7717.00,0.2019
7716.00,0.2019
7715.00,0.2019
7714.00,0.2019
7713.00,0.2018
7712.00,0.2017
7711.00,0.2017
7710.00,0.2016
7709.00,0.2016
7708.00,0.2016
7707.00,0.2016
7706.00,0.2016
7705.00,0.2016
7704.00,0.2016
7703.00,0.2017
7702.00,0.2017
7701.00,0.2017
7700.00,0.2017
7699.00,0.2016
7698.00,0.2015
7697.00,0.2015
7696.00,0.2014
7695.00,0.2014
7694.00,0.2014
7693.00,0.2014
7692.00,0.2015
7691.00,0.2015
7690.00,0.2015
7689.00,0.2015
7688.00,0.2015
7687.00,0.2015
7686.00,0.2014
7685.00,0.2014
7684.00,0.2013
7683.00,0.2013
7682.00,0.2012
7681.00,0.2012
7680.00,0.2012
7679.00,0.2012
7678.00,0.2012
7677.00,0.2012
7676.00,0.2012
7675.00,0.2012
7674.00,0.2011
7673.00,0.2011
7672.00,0.2011
7671.00,0.2011
7670.00,0.2011
7669.00,0.2011
7668.00,0.2011
7667.00,0.2011
7666.00,0.2011
7665.00,0.2011
7664.00,0.2011
7663.00,0.2011
7662.00,0.2010
7661.00,0.2010
7660.00,0.2010
7659.00,0.2010
7658.00,0.2011
7657.00,0.2011
7656.00,0.2010
7655.00,0.2010
7654.00,0.2010
7653.00,0.2010
7652.00,0.2009
7651.00,0.2009
7650.00,0.2009
7649.00,0.2009
7648.00,0.2009
7647.00,0.2009
7646.00,0.2009
7645.00,0.2009
7644.00,0.2009
7643.00,0.2009
7642.00,0.2008
7641.00,0.2008
7640.00,0.2008
7639.00,0.2008
7638.00,0.2009
7637.00,0.2009
7636.00,0.2009
7635.00,0.2009
7634.00,0.2009
7633.00,0.2009
7632.00,0.2009
7631.00,0.2009
7630.00,0.2009
7629.00,0.2008
7628.00,0.2008
7627.00,0.2007
7626.00,0.2007
7625.00,0.2007
7624.00,0.2006
7623.00,0.2006
7622.00,0.2006
7621.00,0.2006
7620.00,0.2006
7619.00,0.2007
7618.00,0.2007
7617.00,0.2008
7616.00,0.2008
7615.00,0.2008
7614.00,0.2008
7613.00,0.2008
7612.00,0.2009
7611.00,0.2009
7610.00,0.2009
7609.00,0.2009
7608.00,0.2009
7607.00,0.2009
7606.00,0.2009
7605.00,0.2009
7604.00,0.2008
7603.00,0.2008
7602.00,0.2007
7601.00,0.2008
7600.00,0.2008
7599.00,0.2009
7598.00,0.2010
7597.00,0.2010
7596.00,0.2010
7595.00,0.2011
7594.00,0.2011
7593.00,0.2011
7592.00,0.2010
7591.00,0.2009
7590.00,0.2009
7589.00,0.2009
7588.00,0.2009
7587.00,0.2010
7586.00,0.2010
7585.00,0.2010
7584.00,0.2011
7583.00,0.2011
7582.00,0.2011
7581.00,0.2011
7580.00,0.2010
7579.00,0.2010
7578.00,0.2011
7577.00,0.2012
7576.00,0.2013
7575.00,0.2014
7574.00,0.2014
7573.00,0.2015
7572.00,0.2015
7571.00,0.2015
7570.00,0.2015
7569.00,0.2014
7568.00,0.2014
7567.00,0.2013
7566.00,0.2013
7565.00,0.2013
7564.00,0.2013
7563.00,0.2014
7562.00,0.2014
7561.00,0.2014
7560.00,0.2015
7559.00,0.2015
7558.00,0.2016
7557.00,0.2017
7556.00,0.2017
7555.00,0.2018
7554.00,0.2018
7553.00,0.2019
7552.00,0.2019
7551.00,0.2019
7550.00,0.2020
7549.00,0.2021
7548.00,0.2021
7547.00,0.2022
7546.00,0.2022
7545.00,0.2023
7544.00,0.2023
7543.00,0.2024
7542.00,0.2024
7541.00,0.2024
7540.00,0.2025
7539.00,0.2025
7538.00,0.2025
7537.00,0.2026
7536.00,0.2027
7535.00,0.2028
7534.00,0.2028
7533.00,0.2029
7532.00,0.2029
7531.00,0.2029
7530.00,0.2029
7529.00,0.2029
7528.00,0.2029
7527.00,0.2030
7526.00,0.2030
7525.00,0.2031
7524.00,0.2032
7523.00,0.2034
7522.00,0.2035
7521.00,0.2036
7520.00,0.2036
7519.00,0.2037
7518.00,0.2037
7517.00,0.2037
7516.00,0.2037
7515.00,0.2038
7514.00,0.2038
7513.00,0.2038
7512.00,0.2039
7511.00,0.2039
7510.00,0.2040
7509.00,0.2041
7508.00,0.2041
7507.00,0.2042
7506.00,0.2043
7505.00,0.2045
7504.00,0.2045
7503.00,0.2046
7502.00,0.2046
7501.00,0.2047
7500.00,0.2048
7499.00,0.2048
7498.00,0.2049
7497.00,0.2050
7496.00,0.2051
7495.00,0.2052
7494.00,0.2052
7493.00,0.2053
7492.00,0.2053
7491.00,0.2054
7490.00,0.2055
7489.00,0.2056
7488.00,0.2057
7487.00,0.2058
7486.00,0.2059
7485.00,0.2060
7484.00,0.2061
7483.00,0.2062
7482.00,0.2063
7481.00,0.2064
7480.00,0.2064
7479.00,0.2065
7478.00,0.2066
7477.00,0.2067
7476.00,0.2067
7475.00,0.2068
7474.00,0.2068
7473.00,0.2069
7472.00,0.2069
7471.00,0.2070
7470.00,0.2070
7469.00,0.2072
7468.00,0.2073
7467.00,0.2074
7466.00,0.2074
7465.00,0.2075
7464.00,0.2076
7463.00,0.2076
7462.00,0.2077
7461.00,0.2077
7460.00,0.2078
7459.00,0.2078
7458.00,0.2079
7457.00,0.2081
7456.00,0.2082
7455.00,0.2084
7454.00,0.2085
7453.00,0.2086
7452.00,0.2087
7451.00,0.2088
7450.00,0.2089
7449.00,0.2090
7448.00,0.2091
7447.00,0.2092
7446.00,0.2094
7445.00,0.2096
7444.00,0.2097
7443.00,0.2099
7442.00,0.2100
7441.00,0.2101
7440.00,0.2103
7439.00,0.2104
7438.00,0.2104
7437.00,0.2105
7436.00,0.2106
7435.00,0.2106
7434.00,0.2107
7433.00,0.2108
7432.00,0.2109
7431.00,0.2110
7430.00,0.2111
7429.00,0.2112
7428.00,0.2113
7427.00,0.2114
7426.00,0.2116
7425.00,0.2118
7424.00,0.2121
7423.00,0.2123
7422.00,0.2125
7421.00,0.2127
7420.00,0.2129
7419.00,0.2131
7418.00,0.2132
7417.00,0.2132
7416.00,0.2131
7415.00,0.2130
7414.00,0.2130
7413.00,0.2131
7412.00,0.2132
7411.00,0.2135
7410.00,0.2138
7409.00,0.2140
7408.00,0.2142
7407.00,0.2144
7406.00,0.2145
7405.00,0.2147
7404.00,0.2149
7403.00,0.2149
7402.00,0.2150
7401.00,0.2151
7400.00,0.2153
7399.00,0.2155
7398.00,0.2158
7397.00,0.2160
7396.00,0.2161
7395.00,0.2162
7394.00,0.2163
7393.00,0.2165
7392.00,0.2165
7391.00,0.2166
7390.00,0.2166
7389.00,0.2168
7388.00,0.2170
7387.00,0.2174
7386.00,0.2178
7385.00,0.2182
7384.00,0.2185
7383.00,0.2188
7382.00,0.2190
7381.00,0.2194
7380.00,0.2197
7379.00,0.2198
7378.00,0.2195
7377.00,0.2192
7376.00,0.2190
7375.00,0.2191
7374.00,0.2194
7373.00,0.2196
7372.00,0.2196
7371.00,0.2196
7370.00,0.2197
7369.00,0.2199
7368.00,0.2202
7367.00,0.2204
7366.00,0.2204
7365.00,0.2203
7364.00,0.2202
7363.00,0.2203
7362.00,0.2206
7361.00,0.2211
7360.00,0.2217
7359.00,0.2220
7358.00,0.2220
7357.00,0.2218
7356.00,0.2218
7355.00,0.2219
7354.00,0.2222
7353.00,0.2224
7352.00,0.2225
7351.00,0.2226
7350.00,0.2228
7349.00,0.2233
7348.00,0.2239
7347.00,0.2245
7346.00,0.2250
7345.00,0.2253
7344.00,0.2256
7343.00,0.2256
7342.00,0.2253
7341.00,0.2248
7340.00,0.2242
7339.00,0.2237
7338.00,0.2231
7337.00,0.2226
7336.00,0.2223
7335.00,0.2226
7334.00,0.2233
7333.00,0.2242
7332.00,0.2250
7331.00,0.2255
7330.00,0.2256
7329.00,0.2257
7328.00,0.2258
7327.00,0.2257
7326.00,0.2254
7325.00,0.2248
7324.00,0.2243
7323.00,0.2241
7322.00,0.2242
7321.00,0.2243
7320.00,0.2243
7319.00,0.2244
7318.00,0.2246
7317.00,0.2250
7316.00,0.2255
7315.00,0.2260
7314.00,0.2263
7313.00,0.2265
7312.00,0.2267
7311.00,0.2270
7310.00,0.2270
7309.00,0.2267
7308.00,0.2261
7307.00,0.2258
7306.00,0.2257
7305.00,0.2257
7304.00,0.2258
7303.00,0.2257
7302.00,0.2257
7301.00,0.2259
7300.00,0.2264
7299.00,0.2269
7298.00,0.2272
7297.00,0.2272
7296.00,0.2269
7295.00,0.2266
7294.00,0.2267
7293.00,0.2269
7292.00,0.2269
7291.00,0.2267
7290.00,0.2264
7289.00,0.2262
7288.00,0.2263
7287.00,0.2264
7286.00,0.2265
7285.00,0.2264
7284.00,0.2262
7283.00,0.2262
7282.00,0.2262
7281.00,0.2264
7280.00,0.2265
7279.00,0.2266
7278.00,0.2267
7277.00,0.2267
7276.00,0.2268
7275.00,0.2268
7274.00,0.2268
7273.00,0.2269
7272.00,0.2270
7271.00,0.2269
7270.00,0.2268
7269.00,0.2268
7268.00,0.2270
7267.00,0.2274
7266.00,0.2276
7265.00,0.2276
7264.00,0.2275
7263.00,0.2274
7262.00,0.2273
7261.00,0.2273
7260.00,0.2273
7259.00,0.2274
7258.00,0.2277
7257.00,0.2281
7256.00,0.2284
7255.00,0.2285
7254.00,0.2285
7253.00,0.2285
7252.00,0.2284
7251.00,0.2283
7250.00,0.2284
7249.00,0.2288
7248.00,0.2296
7247.00,0.2306
7246.00,0.2313
7245.00,0.2316
7244.00,0.2315
7243.00,0.2311
7242.00,0.2307
7241.00,0.2301
7240.00,0.2297
7239.00,0.2296
7238.00,0.2302
7237.00,0.2313
7236.00,0.2325
7235.00,0.2332
7234.00,0.2333
7233.00,0.2331
7232.00,0.2328
7231.00,0.2325
7230.00,0.2318
7229.00,0.2310
7228.00,0.2304
7227.00,0.2302
7226.00,0.2306
7225.00,0.2312
7224.00,0.2317
7223.00,0.2319
7222.00,0.2319
7221.00,0.2320
7220.00,0.2322
7219.00,0.2324
7218.00,0.2324
7217.00,0.2322
7216.00,0.2319
7215.00,0.2317
7214.00,0.2316
7213.00,0.2317
7212.00,0.2318
7211.00,0.2321
7210.00,0.2326
7209.00,0.2332
7208.00,0.2338
7207.00,0.2342
7206.00,0.2344
7205.00,0.2345
7204.00,0.2345
7203.00,0.2342
7202.00,0.2339
7201.00,0.2337
7200.00,0.2336
7199.00,0.2338
7198.00,0.2340
7197.00,0.2342
7196.00,0.2344
7195.00,0.2345
7194.00,0.2346
7193.00,0.2347
7192.00,0.2348
7191.00,0.2349
7190.00,0.2352
7189.00,0.2356
7188.00,0.2362
7187.00,0.2369
7186.00,0.2377
7185.00,0.2382
7184.00,0.2385
7183.00,0.2385
7182.00,0.2383
7181.00,0.2381
7180.00,0.2379
7179.00,0.2376
7178.00,0.2374
7177.00,0.2374
7176.00,0.2378
7175.00,0.2384
7174.00,0.2391
7173.00,0.2399
7172.00,0.2405
7171.00,0.2409
7170.00,0.2412
7169.00,0.2414
7168.00,0.2417
7167.00,0.2420
7166.00,0.2423
7165.00,0.2426
7164.00,0.2427
7163.00,0.2427
7162.00,0.2427
7161.00,0.2427
7160.00,0.2427
7159.00,0.2425
7158.00,0.2422
7157.00,0.2420
7156.00,0.2420
7155.00,0.2423
7154.00,0.2426
7153.00,0.2429
7152.00,0.2434
7151.00,0.2439
7150.00,0.2445
7149.00,0.2450
7148.00,0.2456
7147.00,0.2461
7146.00,0.2466
7145.00,0.2473
7144.00,0.2479
7143.00,0.2483
7142.00,0.2484
7141.00,0.2485
7140.00,0.2486
7139.00,0.2487
7138.00,0.2487
7137.00,0.2486
7136.00,0.2483
7135.00,0.2483
7134.00,0.2483
7133.00,0.2485
7132.00,0.2488
7131.00,0.2490
7130.00,0.2493
7129.00,0.2497
7128.00,0.2500
7127.00,0.2505
7126.00,0.2510
7125.00,0.2515
7124.00,0.2522
7123.00,0.2530
7122.00,0.2539
7121.00,0.2547
7120.00,0.2550
7119.00,0.2550
7118.00,0.2550
7117.00,0.2549
7116.00,0.2548
7115.00,0.2546
7114.00,0.2544
7113.00,0.2546
7112.00,0.2552
7111.00,0.2561
7110.00,0.2570
7109.00,0.2577
7108.00,0.2581
7107.00,0.2582
7106.00,0.2583
7105.00,0.2585
7104.00,0.2586
7103.00,0.2587
7102.00,0.2590
7101.00,0.2596
7100.00,0.2604
7099.00,0.2613
7098.00,0.2620
7097.00,0.2624
7096.00,0.2627
7095.00,0.2629
7094.00,0.2630
7093.00,0.2630
7092.00,0.2630
7091.00,0.2632
7090.00,0.2635
7089.00,0.2640
7088.00,0.2645
7087.00,0.2650
7086.00,0.2655
7085.00,0.2659
7084.00,0.2663
7083.00,0.2667
7082.00,0.2670
7081.00,0.2673
7080.00,0.2677
7079.00,0.2682
7078.00,0.2687
7077.00,0.2693
7076.00,0.2700
7075.00,0.2708
7074.00,0.2716
7073.00,0.2722
7072.00,0.2727
7071.00,0.2731
7070.00,0.2734
7069.00,0.2736
7068.00,0.2737
7067.00,0.2739
7066.00,0.2742
7065.00,0.2746
7064.00,0.2751
7063.00,0.2755
7062.00,0.2760
7061.00,0.2764
7060.00,0.2769
7059.00,0.2775
7058.00,0.2781
7057.00,0.2786
7056.00,0.2790
7055.00,0.2795
7054.00,0.2801
7053.00,0.2807
7052.00,0.2813
7051.00,0.2819
7050.00,0.2824
7049.00,0.2830
7048.00,0.2835
7047.00,0.2841
7046.00,0.2845
7045.00,0.2849
7044.00,0.2852
7043.00,0.2856
7042.00,0.2861
7041.00,0.2866
7040.00,0.2871
7039.00,0.2875
7038.00,0.2880
7037.00,0.2884
7036.00,0.2888
7035.00,0.2892
7034.00,0.2897
7033.00,0.2902
7032.00,0.2907
7031.00,0.2913
7030.00,0.2919
7029.00,0.2926
7028.00,0.2932
7027.00,0.2939
7026.00,0.2945
7025.00,0.2949
7024.00,0.2953
7023.00,0.2957
7022.00,0.2960
7021.00,0.2964
7020.00,0.2968
7019.00,0.2973
7018.00,0.2978
7017.00,0.2983
7016.00,0.2988
7015.00,0.2993
7014.00,0.2997
7013.00,0.3001
7012.00,0.3006
7011.00,0.3010
7010.00,0.3015
7009.00,0.3020
7008.00,0.3025
7007.00,0.3030
7006.00,0.3036
7005.00,0.3041
7004.00,0.3046
7003.00,0.3050
7002.00,0.3055
7001.00,0.3059
7000.00,0.3064
6999.00,0.3068
6998.00,0.3072
6997.00,0.3076
6996.00,0.3080
6995.00,0.3084
6994.00,0.3088
6993.00,0.3093
6992.00,0.3097
6991.00,0.3101
6990.00,0.3106
6989.00,0.3110
6988.00,0.3115
6987.00,0.3120
6986.00,0.3125
6985.00,0.3130
6984.00,0.3134
6983.00,0.3137
6982.00,0.3140
6981.00,0.3143
6980.00,0.3147
6979.00,0.3150
6978.00,0.3153
6977.00,0.3158
6976.00,0.3162
6975.00,0.3167
6974.00,0.3170
6973.00,0.3173
6972.00,0.3176
6971.00,0.3179
6970.00,0.3181
6969.00,0.3183
6968.00,0.3185
6967.00,0.3189
6966.00,0.3193
6965.00,0.3197
6964.00,0.3201
6963.00,0.3205
6962.00,0.3208
6961.00,0.3211
6960.00,0.3215
6959.00,0.3219
6958.00,0.3223
6957.00,0.3226
6956.00,0.3229
6955.00,0.3232
6954.00,0.3234
6953.00,0.3236
6952.00,0.3238
6951.00,0.3241
6950.00,0.3244
6949.00,0.3247
6948.00,0.3251
6947.00,0.3254
6946.00,0.3257
6945.00,0.3260
6944.00,0.3262
6943.00,0.3264
6942.00,0.3266
6941.00,0.3269
6940.00,0.3272
6939.00,0.3274
6938.00,0.3277
6937.00,0.3280
6936.00,0.3282
6935.00,0.3285
6934.00,0.3287
6933.00,0.3289
6932.00,0.3291
6931.00,0.3293
6930.00,0.3295
6929.00,0.3296
6928.00,0.3298
6927.00,0.3300
6926.00,0.3302
6925.00,0.3304
6924.00,0.3306
6923.00,0.3309
6922.00,0.3312
6921.00,0.3316
6920.00,0.3318
6919.00,0.3320
6918.00,0.3321
6917.00,0.3322
6916.00,0.3323
6915.00,0.3324
6914.00,0.3324
6913.00,0.3324
6912.00,0.3325
6911.00,0.3327
6910.00,0.3329
6909.00,0.3331
6908.00,0.3333
6907.00,0.3334
6906.00,0.3335
6905.00,0.3337
6904.00,0.3340
6903.00,0.3342
6902.00,0.3344
6901.00,0.3346
6900.00,0.3348
6899.00,0.3351
6898.00,0.3353
6897.00,0.3354
6896.00,0.3356
6895.00,0.3357
6894.00,0.3357
6893.00,0.3358
6892.00,0.3358
6891.00,0.3359
6890.00,0.3360
6889.00,0.3361
6888.00,0.3362
6887.00,0.3364
6886.00,0.3365
6885.00,0.3367
6884.00,0.3368
6883.00,0.3368
6882.00,0.3369
6881.00,0.3370
6880.00,0.3371
6879.00,0.3372
6878.00,0.3373
6877.00,0.3374
6876.00,0.3376
6875.00,0.3377
6874.00,0.3378
6873.00,0.3380
6872.00,0.3380
6871.00,0.3381
6870.00,0.3382
6869.00,0.3382
6868.00,0.3383
6867.00,0.3384
6866.00,0.3385
6865.00,0.3385
6864.00,0.3387
6863.00,0.3388
6862.00,0.3388
6861.00,0.3389
6860.00,0.3390
6859.00,0.3391
6858.00,0.3392
6857.00,0.3392
6856.00,0.3392
6855.00,0.3393
6854.00,0.3394
6853.00,0.3394
6852.00,0.3395
6851.00,0.3395
6850.00,0.3396
6849.00,0.3396
6848.00,0.3397
6847.00,0.3398
6846.00,0.3399
6845.00,0.3399
6844.00,0.3399
6843.00,0.3400
6842.00,0.3401
6841.00,0.3401
6840.00,0.3402
6839.00,0.3403
6838.00,0.3403
6837.00,0.3404
6836.00,0.3405
6835.00,0.3405
6834.00,0.3406
6833.00,0.3406
6832.00,0.3406
6831.00,0.3406
6830.00,0.3407
6829.00,0.3407
6828.00,0.3408
6827.00,0.3408
6826.00,0.3409
6825.00,0.3409
6824.00,0.3409
6823.00,0.3409
6822.00,0.3410
6821.00,0.3410
6820.00,0.3410
6819.00,0.3411
6818.00,0.3412
6817.00,0.3412
6816.00,0.3412
6815.00,0.3412
6814.00,0.3412
6813.00,0.3412
6812.00,0.3413
6811.00,0.3413
6810.00,0.3413
6809.00,0.3414
6808.00,0.3415
6807.00,0.3416
6806.00,0.3416
6805.00,0.3416
6804.00,0.3415
6803.00,0.3415
6802.00,0.3415
6801.00,0.3415
6800.00,0.3414
6799.00,0.3414
6798.00,0.3415
6797.00,0.3416
6796.00,0.3416
6795.00,0.3417
6794.00,0.3416
6793.00,0.3416
6792.00,0.3416
6791.00,0.3416
6790.00,0.3416
6789.00,0.3415
6788.00,0.3414
6787.00,0.3414
6786.00,0.3414
6785.00,0.3413
6784.00,0.3413
6783.00,0.3412
6782.00,0.3412
6781.00,0.3412
6780.00,0.3413
6779.00,0.3413
6778.00,0.3413
6777.00,0.3414
6776.00,0.3414
6775.00,0.3414
6774.00,0.3413
6773.00,0.3413
6772.00,0.3413
6771.00,0.3412
6770.00,0.3412
6769.00,0.3411
6768.00,0.3411
6767.00,0.3411
6766.00,0.3410
6765.00,0.3410
6764.00,0.3410
6763.00,0.3410
6762.00,0.3409
6761.00,0.3409
6760.00,0.3409
6759.00,0.3409
6758.00,0.3410
6757.00,0.3409
6756.00,0.3408
6755.00,0.3408
6754.00,0.3408
6753.00,0.3408
6752.00,0.3407
6751.00,0.3406
6750.00,0.3405
6749.00,0.3405
6748.00,0.3405
6747.00,0.3405
6746.00,0.3404
6745.00,0.3403
6744.00,0.3403
6743.00,0.3402
6742.00,0.3402
6741.00,0.3401
6740.00,0.3401
6739.00,0.3400
6738.00,0.3400
6737.00,0.3400
6736.00,0.3399
6735.00,0.3399
6734.00,0.3398
6733.00,0.3398
6732.00,0.3397
6731.00,0.3396
6730.00,0.3395
6729.00,0.3395
6728.00,0.3394
6727.00,0.3394
6726.00,0.3394
6725.00,0.3394
6724.00,0.3394
6723.00,0.3394
6722.00,0.3393
6721.00,0.3393
6720.00,0.3392
6719.00,0.3391
6718.00,0.3390
6717.00,0.3389
6716.00,0.3389
6715.00,0.3388
6714.00,0.3388
6713.00,0.3387
6712.00,0.3386
6711.00,0.3385
6710.00,0.3384
6709.00,0.3383
6708.00,0.3382
6707.00,0.3382
6706.00,0.3382
6705.00,0.3382
6704.00,0.3381
6703.00,0.3381
6702.00,0.3380
6701.00,0.3380
6700.00,0.3380
6699.00,0.3379
6698.00,0.3377
6697.00,0.3377
6696.00,0.3376
6695.00,0.3376
6694.00,0.3376
6693.00,0.3375
6692.00,0.3373
6691.00,0.3372
6690.00,0.3371
6689.00,0.3371
6688.00,0.3370
6687.00,0.3369
6686.00,0.3368
6685.00,0.3368
6684.00,0.3368
6683.00,0.3367
6682.00,0.3366
6681.00,0.3365
6680.00,0.3364
6679.00,0.3363
6678.00,0.3363
6677.00,0.3362
6676.00,0.3362
6675.00,0.3361
6674.00,0.3361
6673.00,0.3360
6672.00,0.3359
6671.00,0.3358
6670.00,0.3357
6669.00,0.3356
6668.00,0.3355
6667.00,0.3354
6666.00,0.3353
6665.00,0.3353
6664.00,0.3352
6663.00,0.3352
6662.00,0.3352
6661.00,0.3351
6660.00,0.3351
6659.00,0.3350
6658.00,0.3349
6657.00,0.3348
6656.00,0.3347
6655.00,0.3346
6654.00,0.3346
6653.00,0.3345
6652.00,0.3344
6651.00,0.3343
6650.00,0.3342
6649.00,0.3341
6648.00,0.3340
6647.00,0.3339
6646.00,0.3338
6645.00,0.3337
6644.00,0.3336
6643.00,0.3336
6642.00,0.3335
6641.00,0.3334
6640.00,0.3333
6639.00,0.3333
6638.00,0.3332
6637.00,0.3332
6636.00,0.3331
6635.00,0.3330
6634.00,0.3329
6633.00,0.3329
6632.00,0.3328
6631.00,0.3327
6630.00,0.3326
6629.00,0.3326
6628.00,0.3325
6627.00,0.3325
6626.00,0.3324
6625.00,0.3324
6624.00,0.3323
6623.00,0.3322
6622.00,0.3321
6621.00,0.3319
6620.00,0.3318
6619.00,0.3317
6618.00,0.3316
6617.00,0.3316
6616.00,0.3315
6615.00,0.3314
6614.00,0.3313
6613.00,0.3313
6612.00,0.3312
6611.00,0.3311
6610.00,0.3309
6609.00,0.3308
6608.00,0.3307
6607.00,0.3306
6606.00,0.3306
6605.00,0.3305
6604.00,0.3304
6603.00,0.3303
6602.00,0.3303
6601.00,0.3303
6600.00,0.3302
6599.00,0.3302
6598.00,0.3301
6597.00,0.3300
6596.00,0.3299
6595.00,0.3298
6594.00,0.3297
6593.00,0.3296
6592.00,0.3296
6591.00,0.3295
6590.00,0.3294
6589.00,0.3293
6588.00,0.3292
6587.00,0.3292
6586.00,0.3291
6585.00,0.3290
6584.00,0.3289
6583.00,0.3289
6582.00,0.3288
6581.00,0.3288
6580.00,0.3287
6579.00,0.3286
6578.00,0.3286
6577.00,0.3285
6576.00,0.3285
6575.00,0.3285
6574.00,0.3284
6573.00,0.3283
6572.00,0.3283
6571.00,0.3282
6570.00,0.3281
6569.00,0.3280
6568.00,0.3279
6567.00,0.3277
6566.00,0.3276
6565.00,0.3276
6564.00,0.3276
6563.00,0.3275
6562.00,0.3275
6561.00,0.3274
6560.00,0.3273
6559.00,0.3273
6558.00,0.3273
6557.00,0.3272
6556.00,0.3271
6555.00,0.3271
6554.00,0.3270
6553.00,0.3270
6552.00,0.3269
6551.00,0.3269
6550.00,0.3268
6549.00,0.3268
6548.00,0.3268
6547.00,0.3267
6546.00,0.3267
6545.00,0.3266
6544.00,0.3265
6543.00,0.3264
6542.00,0.3264
6541.00,0.3264
6540.00,0.3264
6539.00,0.3264
6538.00,0.3264
6537.00,0.3264
6536.00,0.3264
6535.00,0.3264
6534.00,0.3264
6533.00,0.3263
6532.00,0.3263
6531.00,0.3263
6530.00,0.3262
6529.00,0.3262
6528.00,0.3261
6527.00,0.3260
6526.00,0.3259
6525.00,0.3259
6524.00,0.3258
6523.00,0.3258
6522.00,0.3257
6521.00,0.3257
6520.00,0.3256
6519.00,0.3256
6518.00,0.3256
6517.00,0.3256
6516.00,0.3256
6515.00,0.3256
6514.00,0.3256
6513.00,0.3256
6512.00,0.3256
6511.00,0.3255
6510.00,0.3255
6509.00,0.3255
6508.00,0.3254
6507.00,0.3254
6506.00,0.3254
6505.00,0.3255
6504.00,0.3255
6503.00,0.3255
6502.00,0.3254
6501.00,0.3254
6500.00,0.3254
6499.00,0.3253
6498.00,0.3253
6497.00,0.3253
6496.00,0.3252
6495.00,0.3253
6494.00,0.3253
6493.00,0.3253
6492.00,0.3253
6491.00,0.3253
6490.00,0.3253
6489.00,0.3253
6488.00,0.3253
6487.00,0.3253
6486.00,0.3252
6485.00,0.3252
6484.00,0.3252
6483.00,0.3252
6482.00,0.3252
6481.00,0.3252
6480.00,0.3252
6479.00,0.3253
6478.00,0.3253
6477.00,0.3254
6476.00,0.3254
6475.00,0.3254
6474.00,0.3254
6473.00,0.3254
6472.00,0.3253
6471.00,0.3253
6470.00,0.3254
6469.00,0.3254
6468.00,0.3254
6467.00,0.3254
6466.00,0.3255
6465.00,0.3255
6464.00,0.3255
6463.00,0.3255
6462.00,0.3256
6461.00,0.3256
6460.00,0.3255
6459.00,0.3255
6458.00,0.3255
6457.00,0.3255
6456.00,0.3255
6455.00,0.3255
6454.00,0.3255
6453.00,0.3255
6452.00,0.3255
6451.00,0.3256
6450.00,0.3256
6449.00,0.3255
6448.00,0.3255
6447.00,0.3256
6446.00,0.3256
6445.00,0.3256
6444.00,0.3256
6443.00,0.3257
6442.00,0.3258
6441.00,0.3258
6440.00,0.3258
6439.00,0.3258
6438.00,0.3257
6437.00,0.3257
6436.00,0.3257
6435.00,0.3257
6434.00,0.3257
6433.00,0.3257
6432.00,0.3258
6431.00,0.3259
6430.00,0.3259
6429.00,0.3259
6428.00,0.3260
6427.00,0.3259
6426.00,0.3260
6425.00,0.3260
6424.00,0.3260
6423.00,0.3260
6422.00,0.3261
6421.00,0.3261
6420.00,0.3261
6419.00,0.3262
6418.00,0.3262
6417.00,0.3262
6416.00,0.3262
6415.00,0.3262
6414.00,0.3262
6413.00,0.3262
6412.00,0.3262
6411.00,0.3262
6410.00,0.3262
6409.00,0.3262
6408.00,0.3263
6407.00,0.3263
6406.00,0.3263
6405.00,0.3263
6404.00,0.3263
6403.00,0.3263
6402.00,0.3263
6401.00,0.3263
6400.00,0.3263
6399.00,0.3263
6398.00,0.3264
6397.00,0.3264
6396.00,0.3265
6395.00,0.3265
6394.00,0.3265
6393.00,0.3265
6392.00,0.3265
6391.00,0.3265
6390.00,0.3265
6389.00,0.3265
6388.00,0.3265
6387.00,0.3266
6386.00,0.3266
6385.00,0.3265
6384.00,0.3265
6383.00,0.3265
6382.00,0.3265
6381.00,0.3265
6380.00,0.3265
6379.00,0.3265
6378.00,0.3265
6377.00,0.3265
6376.00,0.3265
6375.00,0.3265
6374.00,0.3265
6373.00,0.3265
6372.00,0.3265
6371.00,0.3266
6370.00,0.3266
6369.00,0.3266
6368.00,0.3265
6367.00,0.3265
6366.00,0.3265
6365.00,0.3265
6364.00,0.3266
6363.00,0.3266
6362.00,0.3266
6361.00,0.3266
6360.00,0.3266
6359.00,0.3266
6358.00,0.3266
6357.00,0.3266
6356.00,0.3265
6355.00,0.3265
6354.00,0.3265
6353.00,0.3265
6352.00,0.3265
6351.00,0.3264
6350.00,0.3264
6349.00,0.3264
6348.00,0.3264
6347.00,0.3264
6346.00,0.3264
6345.00,0.3264
6344.00,0.3264
6343.00,0.3264
6342.00,0.3264
6341.00,0.3264
6340.00,0.3264
6339.00,0.3264
6338.00,0.3263
6337.00,0.3263
6336.00,0.3263
6335.00,0.3262
6334.00,0.3262
6333.00,0.3262
6332.00,0.3261
6331.00,0.3261
6330.00,0.3261
6329.00,0.3261
6328.00,0.3261
6327.00,0.3260
6326.00,0.3260
6325.00,0.3259
6324.00,0.3259
6323.00,0.3258
6322.00,0.3258
6321.00,0.3257
6320.00,0.3257
6319.00,0.3257
6318.00,0.3257
6317.00,0.3257
6316.00,0.3257
6315.00,0.3257
6314.00,0.3256
6313.00,0.3256
6312.00,0.3255
6311.00,0.3254
6310.00,0.3253
6309.00,0.3253
6308.00,0.3252
6307.00,0.3252
6306.00,0.3252
6305.00,0.3251
6304.00,0.3251
6303.00,0.3250
6302.00,0.3249
6301.00,0.3248
6300.00,0.3248
6299.00,0.3247
6298.00,0.3247
6297.00,0.3246
6296.00,0.3245
6295.00,0.3245
6294.00,0.3245
6293.00,0.3245
6292.00,0.3244
6291.00,0.3243
6290.00,0.3243
6289.00,0.3242
6288.00,0.3241
6287.00,0.3240
6286.00,0.3239
6285.00,0.3238
6284.00,0.3238
6283.00,0.3237
6282.00,0.3237
6281.00,0.3237
6280.00,0.3236
6279.00,0.3235
6278.00,0.3234
6277.00,0.3233
6276.00,0.3232
6275.00,0.3231
6274.00,0.3230
6273.00,0.3229
6272.00,0.3229
6271.00,0.3228
6270.00,0.3228
6269.00,0.3227
6268.00,0.3227
6267.00,0.3226
6266.00,0.3225
6265.00,0.3225
6264.00,0.3224
6263.00,0.3223
6262.00,0.3223
6261.00,0.3221
6260.00,0.3220
6259.00,0.3219
6258.00,0.3218
6257.00,0.3217
6256.00,0.3217
6255.00,0.3217
6254.00,0.3216
6253.00,0.3215
6252.00,0.3215
6251.00,0.3213
6250.00,0.3212
6249.00,0.3211
6248.00,0.3210
6247.00,0.3209
6246.00,0.3208
6245.00,0.3208
6244.00,0.3207
6243.00,0.3206
6242.00,0.3205
6241.00,0.3204
6240.00,0.3203
6239.00,0.3202
6238.00,0.3201
6237.00,0.3200
6236.00,0.3199
6235.00,0.3198
6234.00,0.3196
6233.00,0.3195
6232.00,0.3194
6231.00,0.3193
6230.00,0.3193
6229.00,0.3192
6228.00,0.3191
6227.00,0.3190
6226.00,0.3189
6225.00,0.3188
6224.00,0.3187
6223.00,0.3186
6222.00,0.3185
6221.00,0.3184
6220.00,0.3183
6219.00,0.3182
6218.00,0.3181
6217.00,0.3180
6216.00,0.3179
6215.00,0.3178
6214.00,0.3177
6213.00,0.3176
6212.00,0.3175
6211.00,0.3174
6210.00,0.3173
6209.00,0.3172
6208.00,0.3171
6207.00,0.3170
6206.00,0.3170
6205.00,0.3169
6204.00,0.3168
6203.00,0.3166
6202.00,0.3165
6201.00,0.3164
6200.00,0.3163
6199.00,0.3161
6198.00,0.3161
6197.00,0.3160
6196.00,0.3159
6195.00,0.3158
6194.00,0.3157
6193.00,0.3156
6192.00,0.3155
6191.00,0.3154
6190.00,0.3153
6189.00,0.3152
6188.00,0.3152
6187.00,0.3151
6186.00,0.3150
6185.00,0.3149
6184.00,0.3147
6183.00,0.3145
6182.00,0.3144
6181.00,0.3143
6180.00,0.3142
6179.00,0.3141
6178.00,0.3140
6177.00,0.3139
6176.00,0.3138
6175.00,0.3137
6174.00,0.3136
6173.00,0.3135
6172.00,0.3134
6171.00,0.3133
6170.00,0.3132
6169.00,0.3131
6168.00,0.3131
6167.00,0.3129
6166.00,0.3128
6165.00,0.3127
6164.00,0.3126
6163.00,0.3125
6162.00,0.3124
6161.00,0.3123
6160.00,0.3122
6159.00,0.3121
6158.00,0.3120
6157.00,0.3119
6156.00,0.3118
6155.00,0.3117
6154.00,0.3116
6153.00,0.3115
6152.00,0.3114
6151.00,0.3112
6150.00,0.3111
6149.00,0.3110
6148.00,0.3109
6147.00,0.3108
6146.00,0.3107
6145.00,0.3106
6144.00,0.3105
6143.00,0.3104
6142.00,0.3103
6141.00,0.3102
6140.00,0.3100
6139.00,0.3099
6138.00,0.3097
6137.00,0.3096
6136.00,0.3095
6135.00,0.3094
6134.00,0.3093
6133.00,0.3093
6132.00,0.3092
6131.00,0.3091
6130.00,0.3091
6129.00,0.3090
6128.00,0.3089
6127.00,0.3088
6126.00,0.3087
6125.00,0.3086
6124.00,0.3085
6123.00,0.3085
6122.00,0.3084
6121.00,0.3083
6120.00,0.3082
6119.00,0.3081
6118.00,0.3080
6117.00,0.3079
6116.00,0.3078
6115.00,0.3077
6114.00,0.3077
6113.00,0.3076
6112.00,0.3075
6111.00,0.3074
6110.00,0.3073
6109.00,0.3072
6108.00,0.3071
6107.00,0.3070
6106.00,0.3069
6105.00,0.3068
6104.00,0.3066
6103.00,0.3065
6102.00,0.3064
6101.00,0.3063
6100.00,0.3062
6099.00,0.3061
6098.00,0.3061
6097.00,0.3060
6096.00,0.3059
6095.00,0.3058
6094.00,0.3057
6093.00,0.3056
6092.00,0.3055
6091.00,0.3054
6090.00,0.3054
6089.00,0.3053
6088.00,0.3051
6087.00,0.3050
6086.00,0.3049
6085.00,0.3048
6084.00,0.3047
6083.00,0.3046
6082.00,0.3045
6081.00,0.3044
6080.00,0.3044
6079.00,0.3043
6078.00,0.3042
6077.00,0.3041
6076.00,0.3041
6075.00,0.3040
6074.00,0.3039
6073.00,0.3038
6072.00,0.3037
6071.00,0.3036
6070.00,0.3035
6069.00,0.3034
6068.00,0.3034
6067.00,0.3033
6066.00,0.3033
6065.00,0.3032
6064.00,0.3031
6063.00,0.3031
6062.00,0.3030
6061.00,0.3029
6060.00,0.3028
6059.00,0.3027
6058.00,0.3026
6057.00,0.3026
6056.00,0.3025
6055.00,0.3024
6054.00,0.3023
6053.00,0.3022
6052.00,0.3022
6051.00,0.3021
6050.00,0.3021
6049.00,0.3021
6048.00,0.3020
6047.00,0.3020
6046.00,0.3019
6045.00,0.3018
6044.00,0.3017
6043.00,0.3016
6042.00,0.3015
6041.00,0.3015
6040.00,0.3014
6039.00,0.3014
6038.00,0.3013
6037.00,0.3012
6036.00,0.3012
6035.00,0.3011
6034.00,0.3010
6033.00,0.3010
6032.00,0.3009
6031.00,0.3009
6030.00,0.3009
6029.00,0.3009
6028.00,0.3008
6027.00,0.3008
6026.00,0.3007
6025.00,0.3006
6024.00,0.3005
6023.00,0.3004
6022.00,0.3003
6021.00,0.3003
6020.00,0.3002
6019.00,0.3002
6018.00,0.3002
6017.00,0.3001
6016.00,0.3001
6015.00,0.3000
6014.00,0.3000
6013.00,0.3000
6012.00,0.3000
6011.00,0.2999
6010.00,0.2999
6009.00,0.2999
6008.00,0.2999
6007.00,0.2999
6006.00,0.2999
6005.00,0.2998
6004.00,0.2998
6003.00,0.2998
6002.00,0.2998
6001.00,0.2998
6000.00,0.2998
5999.00,0.2997
5998.00,0.2997
5997.00,0.2997
5996.00,0.2998
5995.00,0.2998
5994.00,0.2998
5993.00,0.2998
5992.00,0.2998
5991.00,0.2998
5990.00,0.2999
5989.00,0.2999
5988.00,0.2999
5987.00,0.2998
5986.00,0.2999
5985.00,0.2999
5984.00,0.2999
5983.00,0.2999
5982.00,0.2999
5981.00,0.2999
5980.00,0.3000
5979.00,0.3000
5978.00,0.3000
5977.00,0.3000
5976.00,0.3001
5975.00,0.3001
5974.00,0.3001
5973.00,0.3002
5972.00,0.3002
5971.00,0.3003
5970.00,0.3004
5969.00,0.3004
5968.00,0.3005
5967.00,0.3006
5966.00,0.3007
5965.00,0.3008
5964.00,0.3009
5963.00,0.3010
5962.00,0.3011
5961.00,0.3012
5960.00,0.3013
5959.00,0.3014
5958.00,0.3015
5957.00,0.3016
5956.00,0.3017
5955.00,0.3019
5954.00,0.3020
5953.00,0.3021
5952.00,0.3023
5951.00,0.3024
5950.00,0.3025
5949.00,0.3026
5948.00,0.3027
5947.00,0.3028
5946.00,0.3030
5945.00,0.3031
5944.00,0.3033
5943.00,0.3035
5942.00,0.3036
5941.00,0.3038
5940.00,0.3040
5939.00,0.3041
5938.00,0.3042
5937.00,0.3043
5936.00,0.3045
5935.00,0.3046
5934.00,0.3047
5933.00,0.3049
5932.00,0.3050
5931.00,0.3052
5930.00,0.3054
5929.00,0.3055
5928.00,0.3057
5927.00,0.3059
5926.00,0.3060
5925.00,0.3061
5924.00,0.3062
5923.00,0.3063
5922.00,0.3064
5921.00,0.3065
5920.00,0.3066
5919.00,0.3068
5918.00,0.3069
5917.00,0.3070
5916.00,0.3071
5915.00,0.3072
5914.00,0.3074
5913.00,0.3075
5912.00,0.3075
5911.00,0.3076
5910.00,0.3076
5909.00,0.3077
5908.00,0.3077
5907.00,0.3078
5906.00,0.3079
5905.00,0.3080
5904.00,0.3081
5903.00,0.3081
5902.00,0.3082
5901.00,0.3082
5900.00,0.3083
5899.00,0.3083
5898.00,0.3083
5897.00,0.3083
5896.00,0.3084
5895.00,0.3084
5894.00,0.3084
5893.00,0.3085
5892.00,0.3085
5891.00,0.3086
5890.00,0.3086
5889.00,0.3087
5888.00,0.3087
5887.00,0.3088
5886.00,0.3088
5885.00,0.3088
5884.00,0.3088
5883.00,0.3088
5882.00,0.3089
5881.00,0.3089
5880.00,0.3090
5879.00,0.3090
5878.00,0.3091
5877.00,0.3091
5876.00,0.3092
5875.00,0.3092
5874.00,0.3093
5873.00,0.3094
5872.00,0.3094
5871.00,0.3095
5870.00,0.3095
5869.00,0.3096
5868.00,0.3096
5867.00,0.3096
5866.00,0.3097
5865.00,0.3097
5864.00,0.3098
5863.00,0.3099
5862.00,0.3099
5861.00,0.3100
5860.00,0.3101
5859.00,0.3101
5858.00,0.3102
5857.00,0.3102
5856.00,0.3103
5855.00,0.3104
5854.00,0.3104
5853.00,0.3105
5852.00,0.3105
5851.00,0.3105
5850.00,0.3106
5849.00,0.3106
5848.00,0.3107
5847.00,0.3108
5846.00,0.3109
5845.00,0.3110
5844.00,0.3110
5843.00,0.3111
5842.00,0.3112
5841.00,0.3113
5840.00,0.3114
5839.00,0.3114
5838.00,0.3115
5837.00,0.3116
5836.00,0.3118
5835.00,0.3119
5834.00,0.3119
5833.00,0.3120
5832.00,0.3121
5831.00,0.3122
5830.00,0.3123
5829.00,0.3125
5828.00,0.3126
5827.00,0.3127
5826.00,0.3129
5825.00,0.3130
5824.00,0.3131
5823.00,0.3132
5822.00,0.3133
5821.00,0.3134
5820.00,0.3135
5819.00,0.3136
5818.00,0.3137
5817.00,0.3138
5816.00,0.3139
5815.00,0.3140
5814.00,0.3141
5813.00,0.3143
5812.00,0.3144
5811.00,0.3145
5810.00,0.3146
5809.00,0.3147
5808.00,0.3148
5807.00,0.3149
5806.00,0.3150
5805.00,0.3151
5804.00,0.3152
5803.00,0.3153
5802.00,0.3154
5801.00,0.3155
5800.00,0.3156
5799.00,0.3157
5798.00,0.3158
5797.00,0.3159
5796.00,0.3160
5795.00,0.3161
5794.00,0.3162
5793.00,0.3163
5792.00,0.3163
5791.00,0.3164
5790.00,0.3165
5789.00,0.3166
5788.00,0.3167
5787.00,0.3168
5786.00,0.3169
5785.00,0.3170
5784.00,0.3170
5783.00,0.3171
5782.00,0.3171
5781.00,0.3171
5780.00,0.3171
5779.00,0.3171
5778.00,0.3172
5777.00,0.3172
5776.00,0.3173
5775.00,0.3174
5774.00,0.3174
5773.00,0.3175
5772.00,0.3176
5771.00,0.3176
5770.00,0.3177
5769.00,0.3177
5768.00,0.3177
5767.00,0.3177
5766.00,0.3178
5765.00,0.3178
5764.00,0.3179
5763.00,0.3180
5762.00,0.3180
5761.00,0.3181
5760.00,0.3181
5759.00,0.3181
5758.00,0.3181
5757.00,0.3181
5756.00,0.3181
5755.00,0.3181
5754.00,0.3181
5753.00,0.3181
5752.00,0.3181
5751.00,0.3181
5750.00,0.3181
5749.00,0.3182
5748.00,0.3182
5747.00,0.3182
5746.00,0.3183
5745.00,0.3183
5744.00,0.3183
5743.00,0.3183
5742.00,0.3184
5741.00,0.3184
5740.00,0.3184
5739.00,0.3184
5738.00,0.3184
5737.00,0.3184
5736.00,0.3185
5735.00,0.3185
5734.00,0.3186
5733.00,0.3186
5732.00,0.3186
5731.00,0.3185
5730.00,0.3185
5729.00,0.3185
5728.00,0.3185
5727.00,0.3185
5726.00,0.3186
5725.00,0.3186
5724.00,0.3186
5723.00,0.3186
5722.00,0.3187
5721.00,0.3187
5720.00,0.3187
5719.00,0.3187
5718.00,0.3188
5717.00,0.3188
5716.00,0.3188
5715.00,0.3188
5714.00,0.3188
5713.00,0.3189
5712.00,0.3189
5711.00,0.3189
5710.00,0.3189
5709.00,0.3189
5708.00,0.3189
5707.00,0.3189
5706.00,0.3189
5705.00,0.3190
5704.00,0.3190
5703.00,0.3191
5702.00,0.3191
5701.00,0.3191
5700.00,0.3191
5699.00,0.3191
5698.00,0.3191
5697.00,0.3191
5696.00,0.3191
5695.00,0.3191
5694.00,0.3192
5693.00,0.3192
5692.00,0.3193
5691.00,0.3194
5690.00,0.3194
5689.00,0.3194
5688.00,0.3194
5687.00,0.3194
5686.00,0.3194
5685.00,0.3194
5684.00,0.3194
5683.00,0.3195
5682.00,0.3195
5681.00,0.3196
5680.00,0.3196
5679.00,0.3196
5678.00,0.3195
5677.00,0.3195
5676.00,0.3195
5675.00,0.3195
5674.00,0.3195
5673.00,0.3195
5672.00,0.3196
5671.00,0.3196
5670.00,0.3196
5669.00,0.3197
5668.00,0.3197
5667.00,0.3197
5666.00,0.3196
5665.00,0.3196
5664.00,0.3196
5663.00,0.3195
5662.00,0.3195
5661.00,0.3194
5660.00,0.3194
5659.00,0.3194
5658.00,0.3194
5657.00,0.3195
5656.00,0.3195
5655.00,0.3195
5654.00,0.3195
5653.00,0.3195
5652.00,0.3194
5651.00,0.3194
5650.00,0.3193
5649.00,0.3193
5648.00,0.3193
5647.00,0.3193
5646.00,0.3193
5645.00,0.3194
5644.00,0.3194
5643.00,0.3194
5642.00,0.3194
5641.00,0.3194
5640.00,0.3194
5639.00,0.3194
5638.00,0.3194
5637.00,0.3193
5636.00,0.3193
5635.00,0.3193
5634.00,0.3193
5633.00,0.3194
5632.00,0.3194
5631.00,0.3194
5630.00,0.3193
5629.00,0.3193
5628.00,0.3193
5627.00,0.3193
5626.00,0.3192
5625.00,0.3192
5624.00,0.3191
5623.00,0.3191
5622.00,0.3190
5621.00,0.3189
5620.00,0.3189
5619.00,0.3189
5618.00,0.3188
5617.00,0.3188
5616.00,0.3188
5615.00,0.3187
5614.00,0.3187
5613.00,0.3186
5612.00,0.3186
5611.00,0.3185
5610.00,0.3185
5609.00,0.3185
5608.00,0.3185
5607.00,0.3185
5606.00,0.3184
5605.00,0.3184
5604.00,0.3184
5603.00,0.3183
5602.00,0.3182
5601.00,0.3182
5600.00,0.3181
5599.00,0.3180
5598.00,0.3180
5597.00,0.3179
5596.00,0.3178
5595.00,0.3178
5594.00,0.3177
5593.00,0.3176
5592.00,0.3176
5591.00,0.3175
5590.00,0.3175
5589.00,0.3175
5588.00,0.3174
5587.00,0.3174
5586.00,0.3173
5585.00,0.3172
5584.00,0.3172
5583.00,0.3171
5582.00,0.3171
5581.00,0.3170
5580.00,0.3170
5579.00,0.3169
5578.00,0.3169
5577.00,0.3169
5576.00,0.3168
5575.00,0.3167
5574.00,0.3167
5573.00,0.3166
5572.00,0.3165
5571.00,0.3165
5570.00,0.3164
5569.00,0.3164
5568.00,0.3164
5567.00,0.3163
5566.00,0.3162
5565.00,0.3161
5564.00,0.3160
5563.00,0.3159
5562.00,0.3158
5561.00,0.3157
5560.00,0.3157
5559.00,0.3157
5558.00,0.3157
5557.00,0.3158
5556.00,0.3158
5555.00,0.3158
5554.00,0.3158
5553.00,0.3157
5552.00,0.3156
5551.00,0.3156
5550.00,0.3155
5549.00,0.3153
5548.00,0.3152
5547.00,0.3151
5546.00,0.3149
5545.00,0.3148
5544.00,0.3146
5543.00,0.3145
5542.00,0.3146
5541.00,0.3147
5540.00,0.3149
5539.00,0.3150
5538.00,0.3150
5537.00,0.3149
5536.00,0.3147
5535.00,0.3145
5534.00,0.3142
5533.00,0.3140
5532.00,0.3139
5531.00,0.3139
5530.00,0.3138
5529.00,0.3138
5528.00,0.3137
5527.00,0.3138
5526.00,0.3139
5525.00,0.3140
5524.00,0.3141
5523.00,0.3141
5522.00,0.3140
5521.00,0.3139
5520.00,0.3139
5519.00,0.3138
5518.00,0.3136
5517.00,0.3135
5516.00,0.3133
5515.00,0.3131
5514.00,0.3130
5513.00,0.3131
5512.00,0.3133
5511.00,0.3137
5510.00,0.3140
5509.00,0.3140
5508.00,0.3139
5507.00,0.3136
5506.00,0.3132
5505.00,0.3129
5504.00,0.3126
5503.00,0.3126
5502.00,0.3126
5501.00,0.3126
5500.00,0.3125
5499.00,0.3126
5498.00,0.3129
5497.00,0.3134
5496.00,0.3140
5495.00,0.3145
5494.00,0.3147
5493.00,0.3148
5492.00,0.3146
5491.00,0.3141
5490.00,0.3135
5489.00,0.3129
5488.00,0.3125
5487.00,0.3121
5486.00,0.3117
5485.00,0.3113
5484.00,0.3110
5483.00,0.3109
5482.00,0.3110
5481.00,0.3114
5480.00,0.3121
5479.00,0.3130
5478.00,0.3137
5477.00,0.3139
5476.00,0.3136
5475.00,0.3130
5474.00,0.3123
5473.00,0.3117
5472.00,0.3114
5471.00,0.3115
5470.00,0.3118
5469.00,0.3120
5468.00,0.3120
5467.00,0.3118
5466.00,0.3118
5465.00,0.3119
5464.00,0.3121
5463.00,0.3122
5462.00,0.3120
5461.00,0.3116
5460.00,0.3112
5459.00,0.3107
5458.00,0.3103
5457.00,0.3098
5456.00,0.3095
5455.00,0.3094
5454.00,0.3095
5453.00,0.3097
5452.00,0.3101
5451.00,0.3106
5450.00,0.3112
5449.00,0.3116
5448.00,0.3117
5447.00,0.3116
5446.00,0.3115
5445.00,0.3115
5444.00,0.3113
5443.00,0.3108
5442.00,0.3101
5441.00,0.3095
5440.00,0.3091
5439.00,0.3091
5438.00,0.3091
5437.00,0.3092
5436.00,0.3093
5435.00,0.3094
5434.00,0.3095
5433.00,0.3097
5432.00,0.3098
5431.00,0.3099
5430.00,0.3098
5429.00,0.3094
5428.00,0.3085
5427.00,0.3075
5426.00,0.3066
5425.00,0.3060
5424.00,0.3058
5423.00,0.3057
5422.00,0.3057
5421.00,0.3056
5420.00,0.3057
5419.00,0.3062
5418.00,0.3070
5417.00,0.3080
5416.00,0.3089
5415.00,0.3096
5414.00,0.3100
5413.00,0.3099
5412.00,0.3091
5411.00,0.3080
5410.00,0.3070
5409.00,0.3062
5408.00,0.3055
5407.00,0.3051
5406.00,0.3048
5405.00,0.3047
5404.00,0.3045
5403.00,0.3044
5402.00,0.3043
5401.00,0.3044
5400.00,0.3048
5399.00,0.3054
5398.00,0.3061
5397.00,0.3067
5396.00,0.3068
5395.00,0.3064
5394.00,0.3057
5393.00,0.3048
5392.00,0.3042
5391.00,0.3040
5390.00,0.3043
5389.00,0.3049
5388.00,0.3055
5387.00,0.3058
5386.00,0.3056
5385.00,0.3050
5384.00,0.3044
5383.00,0.3039
5382.00,0.3038
5381.00,0.3044
5380.00,0.3052
5379.00,0.3060
5378.00,0.3065
5377.00,0.3065
5376.00,0.3060
5375.00,0.3052
5374.00,0.3043
5373.00,0.3037
5372.00,0.3033
5371.00,0.3032
5370.00,0.3033
5369.00,0.3036
5368.00,0.3041
5367.00,0.3045
5366.00,0.3048
5365.00,0.3049
5364.00,0.3048
5363.00,0.3045
5362.00,0.3041
5361.00,0.3038
5360.00,0.3038
5359.00,0.3044
5358.00,0.3054
5357.00,0.3068
5356.00,0.3079
5355.00,0.3085
5354.00,0.3084
5353.00,0.3080
5352.00,0.3074
5351.00,0.3069
5350.00,0.3069
5349.00,0.3077
5348.00,0.3089
5347.00,0.3099
5346.00,0.3100
5345.00,0.3096
5344.00,0.3092
5343.00,0.3091
5342.00,0.3093
5341.00,0.3097
5340.00,0.3103
5339.00,0.3106
5338.00,0.3103
5337.00,0.3096
5336.00,0.3089
5335.00,0.3085
5334.00,0.3084
5333.00,0.3086
5332.00,0.3092
5331.00,0.3098
5330.00,0.3102
5329.00,0.3103
5328.00,0.3103
5327.00,0.3101
5326.00,0.3098
5325.00,0.3094
5324.00,0.3092
5323.00,0.3093
5322.00,0.3097
5321.00,0.3102
5320.00,0.3107
5319.00,0.3112
5318.00,0.3116
5317.00,0.3119
5316.00,0.3122
5315.00,0.3124
5314.00,0.3127
5313.00,0.3131
5312.00,0.3138
5311.00,0.3148
5310.00,0.3156
5309.00,0.3162
5308.00,0.3166
5307.00,0.3168
5306.00,0.3169
5305.00,0.3171
5304.00,0.3174
5303.00,0.3180
5302.00,0.3187
5301.00,0.3193
5300.00,0.3197
5299.00,0.3200
5298.00,0.3205
5297.00,0.3210
5296.00,0.3218
5295.00,0.3228
5294.00,0.3242
5293.00,0.3254
5292.00,0.3264
5291.00,0.3271
5290.00,0.3276
5289.00,0.3281
5288.00,0.3287
5287.00,0.3293
5286.00,0.3302
5285.00,0.3312
5284.00,0.3322
5283.00,0.3331
5282.00,0.3338
5281.00,0.3345
5280.00,0.3353
5279.00,0.3362
5278.00,0.3370
5277.00,0.3379
5276.00,0.3389
5275.00,0.3400
5274.00,0.3413
5273.00,0.3427
5272.00,0.3442
5271.00,0.3456
5270.00,0.3471
5269.00,0.3487
5268.00,0.3504
5267.00,0.3522
5266.00,0.3538
5265.00,0.3552
5264.00,0.3563
5263.00,0.3570
5262.00,0.3573
5261.00,0.3578
5260.00,0.3587
5259.00,0.3601
5258.00,0.3618
5257.00,0.3635
5256.00,0.3649
5255.00,0.3660
5254.00,0.3670
5253.00,0.3681
5252.00,0.3696
5251.00,0.3714
5250.00,0.3734
5249.00,0.3754
5248.00,0.3771
5247.00,0.3782
5246.00,0.3788
5245.00,0.3791
5244.00,0.3795
5243.00,0.3802
5242.00,0.3809
5241.00,0.3817
5240.00,0.3828
5239.00,0.3841
5238.00,0.3855
5237.00,0.3869
5236.00,0.3883
5235.00,0.3897
5234.00,0.3912
5233.00,0.3925
5232.00,0.3936
5231.00,0.3946
5230.00,0.3959
5229.00,0.3973
5228.00,0.3987
5227.00,0.4000
5226.00,0.4010
5225.00,0.4016
5224.00,0.4019
5223.00,0.4023
5222.00,0.4030
5221.00,0.4040
5220.00,0.4051
5219.00,0.4060
5218.00,0.4068
5217.00,0.4073
5216.00,0.4078
5215.00,0.4084
5214.00,0.4094
5213.00,0.4107
5212.00,0.4124
5211.00,0.4142
5210.00,0.4161
5209.00,0.4176
5208.00,0.4185
5207.00,0.4186
5206.00,0.4182
5205.00,0.4176
5204.00,0.4173
5203.00,0.4174
5202.00,0.4181
5201.00,0.4192
5200.00,0.4203
5199.00,0.4213
5198.00,0.4218
5197.00,0.4221
5196.00,0.4223
5195.00,0.4224
5194.00,0.4227
5193.00,0.4232
5192.00,0.4239
5191.00,0.4247
5190.00,0.4254
5189.00,0.4260
5188.00,0.4266
5187.00,0.4270
5186.00,0.4272
5185.00,0.4273
5184.00,0.4274
5183.00,0.4274
5182.00,0.4274
5181.00,0.4276
5180.00,0.4279
5179.00,0.4281
5178.00,0.4283
5177.00,0.4283
5176.00,0.4283
5175.00,0.4285
5174.00,0.4288
5173.00,0.4290
5172.00,0.4291
5171.00,0.4291
5170.00,0.4291
5169.00,0.4290
5168.00,0.4291
5167.00,0.4293
5166.00,0.4296
5165.00,0.4297
5164.00,0.4297
5163.00,0.4296
5162.00,0.4294
5161.00,0.4293
5160.00,0.4293
5159.00,0.4293
5158.00,0.4293
5157.00,0.4291
5156.00,0.4289
5155.00,0.4285
5154.00,0.4283
5153.00,0.4280
5152.00,0.4277
5151.00,0.4274
5150.00,0.4272
5149.00,0.4269
5148.00,0.4267
5147.00,0.4265
5146.00,0.4265
5145.00,0.4264
5144.00,0.4263
5143.00,0.4260
5142.00,0.4256
5141.00,0.4252
5140.00,0.4248
5139.00,0.4245
5138.00,0.4243
5137.00,0.4241
5136.00,0.4239
5135.00,0.4236
5134.00,0.4233
5133.00,0.4229
5132.00,0.4225
5131.00,0.4221
5130.00,0.4217
5129.00,0.4213
5128.00,0.4209
5127.00,0.4205
5126.00,0.4202
5125.00,0.4199
5124.00,0.4197
5123.00,0.4195
5122.00,0.4192
5121.00,0.4189
5120.00,0.4186
5119.00,0.4182
5118.00,0.4178
5117.00,0.4174
5116.00,0.4170
5115.00,0.4167
5114.00,0.4164
5113.00,0.4160
5112.00,0.4156
5111.00,0.4152
5110.00,0.4147
5109.00,0.4143
5108.00,0.4140
5107.00,0.4136
5106.00,0.4133
5105.00,0.4130
5104.00,0.4126
5103.00,0.4123
5102.00,0.4120
5101.00,0.4117
5100.00,0.4113
5099.00,0.4110
5098.00,0.4107
5097.00,0.4104
5096.00,0.4101
5095.00,0.4097
5094.00,0.4094
5093.00,0.4090
5092.00,0.4087
5091.00,0.4084
5090.00,0.4080
5089.00,0.4078
5088.00,0.4075
5087.00,0.4072
5086.00,0.4070
5085.00,0.4067
5084.00,0.4064
5083.00,0.4062
5082.00,0.4059
5081.00,0.4056
5080.00,0.4053
5079.00,0.4051
5078.00,0.4048
5077.00,0.4046
5076.00,0.4044
5075.00,0.4042
5074.00,0.4040
5073.00,0.4037
5072.00,0.4034
5071.00,0.4032
5070.00,0.4028
5069.00,0.4025
5068.00,0.4023
5067.00,0.4020
5066.00,0.4017
5065.00,0.4015
5064.00,0.4012
5063.00,0.4009
5062.00,0.4006
5061.00,0.4004
5060.00,0.4001
5059.00,0.3999
5058.00,0.3996
5057.00,0.3993
5056.00,0.3990
5055.00,0.3987
5054.00,0.3983
5053.00,0.3980
5052.00,0.3977
5051.00,0.3974
5050.00,0.3971
5049.00,0.3967
5048.00,0.3964
5047.00,0.3961
5046.00,0.3957
5045.00,0.3954
5044.00,0.3951
5043.00,0.3947
5042.00,0.3944
5041.00,0.3940
5040.00,0.3937
5039.00,0.3933
5038.00,0.3930
5037.00,0.3926
5036.00,0.3922
5035.00,0.3919
5034.00,0.3915
5033.00,0.3912
5032.00,0.3909
5031.00,0.3905
5030.00,0.3902
5029.00,0.3898
5028.00,0.3895
5027.00,0.3891
5026.00,0.3887
5025.00,0.3884
5024.00,0.3880
5023.00,0.3877
5022.00,0.3873
5021.00,0.3870
5020.00,0.3867
5019.00,0.3864
5018.00,0.3860
5017.00,0.3857
5016.00,0.3854
5015.00,0.3851
5014.00,0.3848
5013.00,0.3845
5012.00,0.3842
5011.00,0.3839
5010.00,0.3836
5009.00,0.3834
5008.00,0.3831
5007.00,0.3829
5006.00,0.3826
5005.00,0.3824
5004.00,0.3822
5003.00,0.3820
5002.00,0.3818
5001.00,0.3816
5000.00,0.3814
4999.00,0.3812
4998.00,0.3811
4997.00,0.3809
4996.00,0.3808
4995.00,0.3806
4994.00,0.3805
4993.00,0.3804
4992.00,0.3803
4991.00,0.3802
4990.00,0.3801
4989.00,0.3800
4988.00,0.3799
4987.00,0.3798
4986.00,0.3797
4985.00,0.3797
4984.00,0.3796
4983.00,0.3796
4982.00,0.3796
4981.00,0.3796
4980.00,0.3796
4979.00,0.3797
4978.00,0.3797
4977.00,0.3798
4976.00,0.3799
4975.00,0.3800
4974.00,0.3801
4973.00,0.3802
4972.00,0.3803
4971.00,0.3804
4970.00,0.3805
4969.00,0.3807
4968.00,0.3809
4967.00,0.3811
4966.00,0.3813
4965.00,0.3815
4964.00,0.3817
4963.00,0.3819
4962.00,0.3821
4961.00,0.3824
4960.00,0.3826
4959.00,0.3829
4958.00,0.3832
4957.00,0.3835
4956.00,0.3839
4955.00,0.3842
4954.00,0.3845
4953.00,0.3848
4952.00,0.3852
4951.00,0.3856
4950.00,0.3859
4949.00,0.3863
4948.00,0.3868
4947.00,0.3872
4946.00,0.3876
4945.00,0.3881
4944.00,0.3885
4943.00,0.3890
4942.00,0.3895
4941.00,0.3900
4940.00,0.3905
4939.00,0.3910
4938.00,0.3915
4937.00,0.3920
4936.00,0.3926
4935.00,0.3931
4934.00,0.3936
4933.00,0.3942
4932.00,0.3947
4931.00,0.3953
4930.00,0.3959
4929.00,0.3965
4928.00,0.3971
4927.00,0.3977
4926.00,0.3983
4925.00,0.3989
4924.00,0.3995
4923.00,0.4001
4922.00,0.4008
4921.00,0.4014
4920.00,0.4021
4919.00,0.4028
4918.00,0.4035
4917.00,0.4042
4916.00,0.4049
4915.00,0.4056
4914.00,0.4063
4913.00,0.4070
4912.00,0.4077
4911.00,0.4085
4910.00,0.4092
4909.00,0.4100
4908.00,0.4107
4907.00,0.4114
4906.00,0.4121
4905.00,0.4128
4904.00,0.4135
4903.00,0.4142
4902.00,0.4150
4901.00,0.4157
4900.00,0.4164
4899.00,0.4172
4898.00,0.4180
4897.00,0.4188
4896.00,0.4196
4895.00,0.4204
4894.00,0.4212
4893.00,0.4220
4892.00,0.4227
4891.00,0.4235
4890.00,0.4242
4889.00,0.4250
4888.00,0.4257
4887.00,0.4265
4886.00,0.4273
4885.00,0.4281
4884.00,0.4290
4883.00,0.4298
4882.00,0.4306
4881.00,0.4313
4880.00,0.4321
4879.00,0.4328
4878.00,0.4336
4877.00,0.4344
4876.00,0.4352
4875.00,0.4360
4874.00,0.4368
4873.00,0.4375
4872.00,0.4382
4871.00,0.4389
4870.00,0.4397
4869.00,0.4404
4868.00,0.4412
4867.00,0.4419
4866.00,0.4426
4865.00,0.4434
4864.00,0.4441
4863.00,0.4447
4862.00,0.4455
4861.00,0.4462
4860.00,0.4469
4859.00,0.4476
4858.00,0.4483
4857.00,0.4490
4856.00,0.4496
4855.00,0.4503
4854.00,0.4510
4853.00,0.4517
4852.00,0.4523
4851.00,0.4530
4850.00,0.4536
4849.00,0.4542
4848.00,0.4548
4847.00,0.4554
4846.00,0.4560
4845.00,0.4567
4844.00,0.4574
4843.00,0.4580
4842.00,0.4587
4841.00,0.4592
4840.00,0.4598
4839.00,0.4604
4838.00,0.4609
4837.00,0.4615
4836.00,0.4621
4835.00,0.4628
4834.00,0.4634
4833.00,0.4640
4832.00,0.4646
4831.00,0.4652
4830.00,0.4657
4829.00,0.4663
4828.00,0.4668
4827.00,0.4673
4826.00,0.4679
4825.00,0.4684
4824.00,0.4689
4823.00,0.4694
4822.00,0.4699
4821.00,0.4703
4820.00,0.4708
4819.00,0.4713
4818.00,0.4717
4817.00,0.4722
4816.00,0.4726
4815.00,0.4730
4814.00,0.4735
4813.00,0.4739
4812.00,0.4742
4811.00,0.4746
4810.00,0.4750
4809.00,0.4755
4808.00,0.4759
4807.00,0.4763
4806.00,0.4767
4805.00,0.4771
4804.00,0.4774
4803.00,0.4777
4802.00,0.4780
4801.00,0.4783
4800.00,0.4787
4799.00,0.4790
4798.00,0.4793
4797.00,0.4797
4796.00,0.4800
4795.00,0.4804
4794.00,0.4807
4793.00,0.4811
4792.00,0.4814
4791.00,0.4817
4790.00,0.4820
4789.00,0.4823
4788.00,0.4825
4787.00,0.4828
4786.00,0.4831
4785.00,0.4834
4784.00,0.4836
4783.00,0.4839
4782.00,0.4841
4781.00,0.4843
4780.00,0.4844
4779.00,0.4846
4778.00,0.4849
4777.00,0.4851
4776.00,0.4853
4775.00,0.4855
4774.00,0.4857
4773.00,0.4859
4772.00,0.4860
4771.00,0.4862
4770.00,0.4864
4769.00,0.4865
4768.00,0.4866
4767.00,0.4867
4766.00,0.4868
4765.00,0.4869
4764.00,0.4870
4763.00,0.4871
4762.00,0.4872
4761.00,0.4873
4760.00,0.4873
4759.00,0.4874
4758.00,0.4874
4757.00,0.4875
4756.00,0.4876
4755.00,0.4877
4754.00,0.4878
4753.00,0.4879
4752.00,0.4879
4751.00,0.4880
4750.00,0.4880
4749.00,0.4880
4748.00,0.4880
4747.00,0.4881
4746.00,0.4881
4745.00,0.4880
4744.00,0.4880
4743.00,0.4879
4742.00,0.4878
4741.00,0.4876
4740.00,0.4875
4739.00,0.4875
4738.00,0.4874
4737.00,0.4873
4736.00,0.4873
4735.00,0.4872
4734.00,0.4871
4733.00,0.4870
4732.00,0.4869
4731.00,0.4867
4730.00,0.4865
4729.00,0.4863
4728.00,0.4861
4727.00,0.4860
4726.00,0.4859
4725.00,0.4857
4724.00,0.4855
4723.00,0.4853
4722.00,0.4851
4721.00,0.4849
4720.00,0.4848
4719.00,0.4847
4718.00,0.4846
4717.00,0.4845
4716.00,0.4844
4715.00,0.4842
4714.00,0.4839
4713.00,0.4836
4712.00,0.4832
4711.00,0.4829
4710.00,0.4826
4709.00,0.4823
4708.00,0.4821
4707.00,0.4818
4706.00,0.4816
4705.00,0.4813
4704.00,0.4810
4703.00,0.4807
4702.00,0.4804
4701.00,0.4802
4700.00,0.4800
4699.00,0.4799
4698.00,0.4797
4697.00,0.4795
4696.00,0.4792
4695.00,0.4789
4694.00,0.4786
4693.00,0.4783
4692.00,0.4779
4691.00,0.4776
4690.00,0.4773
4689.00,0.4770
4688.00,0.4767
4687.00,0.4764
4686.00,0.4762
4685.00,0.4759
4684.00,0.4757
4683.00,0.4755
4682.00,0.4753
4681.00,0.4751
4680.00,0.4749
4679.00,0.4746
4678.00,0.4742
4677.00,0.4739
4676.00,0.4736
4675.00,0.4734
4674.00,0.4732
4673.00,0.4730
4672.00,0.4728
4671.00,0.4724
4670.00,0.4721
4669.00,0.4718
4668.00,0.4715
4667.00,0.4712
4666.00,0.4709
4665.00,0.4707
4664.00,0.4704
4663.00,0.4702
4662.00,0.4699
4661.00,0.4696
4660.00,0.4693
4659.00,0.4690
4658.00,0.4687
4657.00,0.4685
4656.00,0.4682
4655.00,0.4680
4654.00,0.4677
4653.00,0.4675
4652.00,0.4672
4651.00,0.4670
4650.00,0.4667
4649.00,0.4665
4648.00,0.4663
4647.00,0.4660
4646.00,0.4658
4645.00,0.4655
4644.00,0.4654
4643.00,0.4652
4642.00,0.4650
4641.00,0.4648
4640.00,0.4645
4639.00,0.4643
4638.00,0.4640
4637.00,0.4638
4636.00,0.4636
4635.00,0.4634
4634.00,0.4632
4633.00,0.4629
4632.00,0.4627
4631.00,0.4625
4630.00,0.4623
4629.00,0.4621
4628.00,0.4619
4627.00,0.4617
4626.00,0.4615
4625.00,0.4613
4624.00,0.4611
4623.00,0.4610
4622.00,0.4608
4621.00,0.4606
4620.00,0.4604
4619.00,0.4603
4618.00,0.4601
4617.00,0.4599
4616.00,0.4598
4615.00,0.4597
4614.00,0.4596
4613.00,0.4594
4612.00,0.4593
4611.00,0.4591
4610.00,0.4589
4609.00,0.4587
4608.00,0.4586
4607.00,0.4585
4606.00,0.4584
4605.00,0.4583
4604.00,0.4582
4603.00,0.4580
4602.00,0.4578
4601.00,0.4577
4600.00,0.4575
4599.00,0.4574
4598.00,0.4573
4597.00,0.4572
4596.00,0.4571
4595.00,0.4569
4594.00,0.4568
4593.00,0.4566
4592.00,0.4564
4591.00,0.4563
4590.00,0.4562
4589.00,0.4562
4588.00,0.4561
4587.00,0.4560
4586.00,0.4558
4585.00,0.4557
4584.00,0.4556
4583.00,0.4555
4582.00,0.4554
4581.00,0.4552
4580.00,0.4552
4579.00,0.4551
4578.00,0.4550
4577.00,0.4550
4576.00,0.4549
4575.00,0.4548
4574.00,0.4546
4573.00,0.4544
4572.00,0.4543
4571.00,0.4542
4570.00,0.4541
4569.00,0.4540
4568.00,0.4539
4567.00,0.4538
4566.00,0.4537
4565.00,0.4535
4564.00,0.4534
4563.00,0.4533
4562.00,0.4532
4561.00,0.4531
4560.00,0.4530
4559.00,0.4528
4558.00,0.4527
4557.00,0.4525
4556.00,0.4522
4555.00,0.4520
4554.00,0.4518
4553.00,0.4516
4552.00,0.4514
4551.00,0.4512
4550.00,0.4511
4549.00,0.4509
4548.00,0.4508
4547.00,0.4506
4546.00,0.4504
4545.00,0.4502
4544.00,0.4500
4543.00,0.4498
4542.00,0.4496
4541.00,0.4495
4540.00,0.4493
4539.00,0.4491
4538.00,0.4489
4537.00,0.4487
4536.00,0.4484
4535.00,0.4481
4534.00,0.4479
4533.00,0.4477
4532.00,0.4475
4531.00,0.4473
4530.00,0.4470
4529.00,0.4467
4528.00,0.4464
4527.00,0.4461
4526.00,0.4459
4525.00,0.4457
4524.00,0.4455
4523.00,0.4452
4522.00,0.4450
4521.00,0.4447
4520.00,0.4445
4519.00,0.4442
4518.00,0.4440
4517.00,0.4438
4516.00,0.4435
4515.00,0.4433
4514.00,0.4430
4513.00,0.4428
4512.00,0.4425
4511.00,0.4423
4510.00,0.4421
4509.00,0.4418
4508.00,0.4416
4507.00,0.4414
4506.00,0.4411
4505.00,0.4409
4504.00,0.4407
4503.00,0.4405
4502.00,0.4403
4501.00,0.4402
4500.00,0.4400
4499.00,0.4399
4498.00,0.4398
4497.00,0.4396
4496.00,0.4395
4495.00,0.4393
4494.00,0.4392
4493.00,0.4391
4492.00,0.4390
4491.00,0.4390
4490.00,0.4389
4489.00,0.4389
4488.00,0.4389
4487.00,0.4389
4486.00,0.4388
4485.00,0.4388
4484.00,0.4388
4483.00,0.4389
4482.00,0.4389
4481.00,0.4390
4480.00,0.4391
4479.00,0.4392
4478.00,0.4394
4477.00,0.4396
4476.00,0.4397
4475.00,0.4399
4474.00,0.4401
4473.00,0.4403
4472.00,0.4406
4471.00,0.4409
4470.00,0.4413
4469.00,0.4416
4468.00,0.4420
4467.00,0.4423
4466.00,0.4427
4465.00,0.4432
4464.00,0.4436
4463.00,0.4441
4462.00,0.4445
4461.00,0.4449
4460.00,0.4454
4459.00,0.4458
4458.00,0.4463
4457.00,0.4468
4456.00,0.4473
4455.00,0.4479
4454.00,0.4485
4453.00,0.4490
4452.00,0.4496
4451.00,0.4501
4450.00,0.4506
4449.00,0.4511
4448.00,0.4517
4447.00,0.4522
4446.00,0.4528
4445.00,0.4534
4444.00,0.4541
4443.00,0.4547
4442.00,0.4553
4441.00,0.4559
4440.00,0.4565
4439.00,0.4570
4438.00,0.4576
4437.00,0.4582
4436.00,0.4589
4435.00,0.4596
4434.00,0.4602
4433.00,0.4609
4432.00,0.4615
4431.00,0.4622
4430.00,0.4629
4429.00,0.4636
4428.00,0.4643
4427.00,0.4651
4426.00,0.4657
4425.00,0.4664
4424.00,0.4670
4423.00,0.4677
4422.00,0.4683
4421.00,0.4690
4420.00,0.4697
4419.00,0.4704
4418.00,0.4711
4417.00,0.4718
4416.00,0.4724
4415.00,0.4730
4414.00,0.4736
4413.00,0.4743
4412.00,0.4748
4411.00,0.4754
4410.00,0.4759
4409.00,0.4764
4408.00,0.4769
4407.00,0.4773
4406.00,0.4778
4405.00,0.4782
4404.00,0.4787
4403.00,0.4791
4402.00,0.4795
4401.00,0.4798
4400.00,0.4801
4399.00,0.4804
4398.00,0.4806
4397.00,0.4808
4396.00,0.4810
4395.00,0.4812
4394.00,0.4813
4393.00,0.4814
4392.00,0.4815
4391.00,0.4816
4390.00,0.4816
4389.00,0.4816
4388.00,0.4816
4387.00,0.4815
4386.00,0.4815
4385.00,0.4814
4384.00,0.4813
4383.00,0.4812
4382.00,0.4810
4381.00,0.4809
4380.00,0.4807
4379.00,0.4805
4378.00,0.4803
4377.00,0.4800
4376.00,0.4797
4375.00,0.4794
4374.00,0.4792
4373.00,0.4789
4372.00,0.4787
4371.00,0.4785
4370.00,0.4782
4369.00,0.4780
4368.00,0.4777
4367.00,0.4775
4366.00,0.4773
4365.00,0.4771
4364.00,0.4770
4363.00,0.4768
4362.00,0.4767
4361.00,0.4766
4360.00,0.4765
4359.00,0.4764
4358.00,0.4763
4357.00,0.4763
4356.00,0.4762
4355.00,0.4762
4354.00,0.4762
4353.00,0.4763
4352.00,0.4763
4351.00,0.4764
4350.00,0.4765
4349.00,0.4765
4348.00,0.4766
4347.00,0.4768
4346.00,0.4769
4345.00,0.4771
4344.00,0.4772
4343.00,0.4774
4342.00,0.4776
4341.00,0.4778
4340.00,0.4781
4339.00,0.4785
4338.00,0.4789
4337.00,0.4792
4336.00,0.4795
4335.00,0.4798
4334.00,0.4800
4333.00,0.4803
4332.00,0.4805
4331.00,0.4808
4330.00,0.4812
4329.00,0.4815
4328.00,0.4818
4327.00,0.4821
4326.00,0.4823
4325.00,0.4825
4324.00,0.4828
4323.00,0.4831
4322.00,0.4835
4321.00,0.4838
4320.00,0.4840
4319.00,0.4842
4318.00,0.4844
4317.00,0.4846
4316.00,0.4848
4315.00,0.4851
4314.00,0.4854
4313.00,0.4856
4312.00,0.4858
4311.00,0.4860
4310.00,0.4863
4309.00,0.4866
4308.00,0.4868
4307.00,0.4870
4306.00,0.4872
4305.00,0.4873
4304.00,0.4874
4303.00,0.4876
4302.00,0.4877
4301.00,0.4879
4300.00,0.4880
4299.00,0.4880
4298.00,0.4880
4297.00,0.4881
4296.00,0.4881
4295.00,0.4882
4294.00,0.4882
4293.00,0.4881
4292.00,0.4881
4291.00,0.4880
4290.00,0.4879
4289.00,0.4878
4288.00,0.4877
4287.00,0.4876
4286.00,0.4875
4285.00,0.4874
4284.00,0.4873
4283.00,0.4872
4282.00,0.4872
4281.00,0.4871
4280.00,0.4870
4279.00,0.4868
4278.00,0.4867
4277.00,0.4865
4276.00,0.4864
4275.00,0.4863
4274.00,0.4862
4273.00,0.4861
4272.00,0.4860
4271.00,0.4858
4270.00,0.4857
4269.00,0.4855
4268.00,0.4854
4267.00,0.4854
4266.00,0.4853
4265.00,0.4853
4264.00,0.4853
4263.00,0.4853
4262.00,0.4853
4261.00,0.4852
4260.00,0.4852
4259.00,0.4851
4258.00,0.4851
4257.00,0.4851
4256.00,0.4851
4255.00,0.4850
4254.00,0.4850
4253.00,0.4850
4252.00,0.4849
4251.00,0.4849
4250.00,0.4849
4249.00,0.4849
4248.00,0.4848
4247.00,0.4848
4246.00,0.4848
4245.00,0.4847
4244.00,0.4847
4243.00,0.4846
4242.00,0.4846
4241.00,0.4846
4240.00,0.4847
4239.00,0.4848
4238.00,0.4849
4237.00,0.4849
4236.00,0.4849
4235.00,0.4848
4234.00,0.4848
4233.00,0.4848
4232.00,0.4848
4231.00,0.4849
4230.00,0.4849
4229.00,0.4848
4228.00,0.4848
4227.00,0.4848
4226.00,0.4849
4225.00,0.4850
4224.00,0.4850
4223.00,0.4850
4222.00,0.4849
4221.00,0.4848
4220.00,0.4847
4219.00,0.4847
4218.00,0.4847
4217.00,0.4846
4216.00,0.4846
4215.00,0.4846
4214.00,0.4846
4213.00,0.4846
4212.00,0.4846
4211.00,0.4846
4210.00,0.4845
4209.00,0.4844
4208.00,0.4843
4207.00,0.4843
4206.00,0.4842
4205.00,0.4842
4204.00,0.4842
4203.00,0.4842
4202.00,0.4842
4201.00,0.4842
4200.00,0.4842
4199.00,0.4842
4198.00,0.4842
4197.00,0.4842
4196.00,0.4841
4195.00,0.4842
4194.00,0.4842
4193.00,0.4844
4192.00,0.4845
4191.00,0.4846
4190.00,0.4847
4189.00,0.4848
4188.00,0.4849
4187.00,0.4850
4186.00,0.4852
4185.00,0.4854
4184.00,0.4856
4183.00,0.4858
4182.00,0.4860
4181.00,0.4862
4180.00,0.4863
4179.00,0.4865
4178.00,0.4867
4177.00,0.4869
4176.00,0.4871
4175.00,0.4874
4174.00,0.4877
4173.00,0.4880
4172.00,0.4883
4171.00,0.4886
4170.00,0.4889
4169.00,0.4892
4168.00,0.4896
4167.00,0.4899
4166.00,0.4903
4165.00,0.4907
4164.00,0.4911
4163.00,0.4915
4162.00,0.4920
4161.00,0.4925
4160.00,0.4929
4159.00,0.4934
4158.00,0.4939
4157.00,0.4945
4156.00,0.4950
4155.00,0.4956
4154.00,0.4962
4153.00,0.4968
4152.00,0.4973
4151.00,0.4979
4150.00,0.4986
4149.00,0.4992
4148.00,0.4998
4147.00,0.5005
4146.00,0.5011
4145.00,0.5018
4144.00,0.5025
4143.00,0.5032
4142.00,0.5040
4141.00,0.5048
4140.00,0.5055
4139.00,0.5063
4138.00,0.5070
4137.00,0.5078
4136.00,0.5086
4135.00,0.5094
4134.00,0.5101
4133.00,0.5108
4132.00,0.5116
4131.00,0.5124
4130.00,0.5132
4129.00,0.5140
4128.00,0.5148
4127.00,0.5157
4126.00,0.5165
4125.00,0.5173
4124.00,0.5182
4123.00,0.5192
4122.00,0.5201
4121.00,0.5210
4120.00,0.5219
4119.00,0.5229
4118.00,0.5238
4117.00,0.5248
4116.00,0.5258
4115.00,0.5268
4114.00,0.5277
4113.00,0.5286
4112.00,0.5296
4111.00,0.5305
4110.00,0.5316
4109.00,0.5327
4108.00,0.5338
4107.00,0.5349
4106.00,0.5359
4105.00,0.5369
4104.00,0.5378
4103.00,0.5388
4102.00,0.5398
4101.00,0.5408
4100.00,0.5419
4099.00,0.5430
4098.00,0.5441
4097.00,0.5453
4096.00,0.5465
4095.00,0.5476
4094.00,0.5487
4093.00,0.5498
4092.00,0.5510
4091.00,0.5523
4090.00,0.5535
4089.00,0.5547
4088.00,0.5558
4087.00,0.5568
4086.00,0.5579
4085.00,0.5590
4084.00,0.5602
4083.00,0.5615
4082.00,0.5628
4081.00,0.5640
4080.00,0.5653
4079.00,0.5664
4078.00,0.5676
4077.00,0.5688
4076.00,0.5700
4075.00,0.5713
4074.00,0.5726
4073.00,0.5739
4072.00,0.5751
4071.00,0.5763
4070.00,0.5775
4069.00,0.5787
4068.00,0.5799
4067.00,0.5812
4066.00,0.5825
4065.00,0.5838
4064.00,0.5852
4063.00,0.5865
4062.00,0.5878
4061.00,0.5890
4060.00,0.5902
4059.00,0.5914
4058.00,0.5925
4057.00,0.5936
4056.00,0.5947
4055.00,0.5958
4054.00,0.5969
4053.00,0.5981
4052.00,0.5993
4051.00,0.6005
4050.00,0.6017
4049.00,0.6029
4048.00,0.6042
4047.00,0.6055
4046.00,0.6068
4045.00,0.6078
4044.00,0.6088
4043.00,0.6096
4042.00,0.6104
4041.00,0.6114
4040.00,0.6124
4039.00,0.6136
4038.00,0.6146
4037.00,0.6156
4036.00,0.6165
4035.00,0.6174
4034.00,0.6184
4033.00,0.6193
4032.00,0.6202
4031.00,0.6211
4030.00,0.6219
4029.00,0.6227
4028.00,0.6235
4027.00,0.6242
4026.00,0.6248
4025.00,0.6254
4024.00,0.6260
4023.00,0.6266
4022.00,0.6273
4021.00,0.6279
4020.00,0.6285
4019.00,0.6289
4018.00,0.6292
4017.00,0.6294
4016.00,0.6296
4015.00,0.6298
4014.00,0.6300
4013.00,0.6303
4012.00,0.6306
4011.00,0.6309
4010.00,0.6311
4009.00,0.6311
4008.00,0.6310
4007.00,0.6307
4006.00,0.6305
4005.00,0.6304
4004.00,0.6303
4003.00,0.6302
4002.00,0.6302
4001.00,0.6301
4000.00,0.6300
   㕕侱�
♼⠨⚚