Created As ASCII File,样品 067 用户 Administrator 日期 星期三, 四月 21 2021
cm-1,A
12000.00,0.2030
11999.00,0.2030
11998.00,0.2030
11997.00,0.2030
11996.00,0.2029
11995.00,0.2027
11994.00,0.2024
11993.00,0.2020
11992.00,0.2017
11991.00,0.2015
11990.00,0.2015
11989.00,0.2017
11988.00,0.2019
11987.00,0.2020
11986.00,0.2022
11985.00,0.2023
11984.00,0.2025
11983.00,0.2027
11982.00,0.2029
11981.00,0.2030
11980.00,0.2030
11979.00,0.2029
11978.00,0.2026
11977.00,0.2024
11976.00,0.2023
11975.00,0.2023
11974.00,0.2023
11973.00,0.2022
11972.00,0.2021
11971.00,0.2019
11970.00,0.2017
11969.00,0.2017
11968.00,0.2020
11967.00,0.2024
11966.00,0.2028
11965.00,0.2031
11964.00,0.2030
11963.00,0.2027
11962.00,0.2023
11961.00,0.2020
11960.00,0.2019
11959.00,0.2021
11958.00,0.2024
11957.00,0.2027
11956.00,0.2027
11955.00,0.2025
11954.00,0.2023
11953.00,0.2020
11952.00,0.2020
11951.00,0.2021
11950.00,0.2022
11949.00,0.2023
11948.00,0.2022
11947.00,0.2021
11946.00,0.2020
11945.00,0.2020
11944.00,0.2022
11943.00,0.2024
11942.00,0.2026
11941.00,0.2026
11940.00,0.2024
11939.00,0.2021
11938.00,0.2017
11937.00,0.2016
11936.00,0.2017
11935.00,0.2019
11934.00,0.2022
11933.00,0.2023
11932.00,0.2022
11931.00,0.2020
11930.00,0.2018
11929.00,0.2020
11928.00,0.2025
11927.00,0.2032
11926.00,0.2039
11925.00,0.2042
11924.00,0.2041
11923.00,0.2037
11922.00,0.2035
11921.00,0.2035
11920.00,0.2039
11919.00,0.2043
11918.00,0.2045
11917.00,0.2043
11916.00,0.2036
11915.00,0.2029
11914.00,0.2024
11913.00,0.2023
11912.00,0.2027
11911.00,0.2032
11910.00,0.2035
11909.00,0.2033
11908.00,0.2027
11907.00,0.2021
11906.00,0.2018
11905.00,0.2018
11904.00,0.2021
11903.00,0.2025
11902.00,0.2026
11901.00,0.2024
11900.00,0.2020
11899.00,0.2017
11898.00,0.2016
11897.00,0.2018
11896.00,0.2022
11895.00,0.2025
11894.00,0.2026
11893.00,0.2025
11892.00,0.2024
11891.00,0.2024
11890.00,0.2027
11889.00,0.2030
11888.00,0.2034
11887.00,0.2034
11886.00,0.2033
11885.00,0.2029
11884.00,0.2026
11883.00,0.2024
11882.00,0.2024
11881.00,0.2026
11880.00,0.2027
11879.00,0.2028
11878.00,0.2027
11877.00,0.2026
11876.00,0.2025
11875.00,0.2026
11874.00,0.2028
11873.00,0.2032
11872.00,0.2035
11871.00,0.2037
11870.00,0.2039
11869.00,0.2039
11868.00,0.2038
11867.00,0.2038
11866.00,0.2038
11865.00,0.2038
11864.00,0.2039
11863.00,0.2039
11862.00,0.2039
11861.00,0.2038
11860.00,0.2037
11859.00,0.2036
11858.00,0.2035
11857.00,0.2034
11856.00,0.2034
11855.00,0.2034
11854.00,0.2035
11853.00,0.2035
11852.00,0.2036
11851.00,0.2037
11850.00,0.2037
11849.00,0.2037
11848.00,0.2037
11847.00,0.2035
11846.00,0.2032
11845.00,0.2028
11844.00,0.2024
11843.00,0.2021
11842.00,0.2019
11841.00,0.2018
11840.00,0.2018
11839.00,0.2018
11838.00,0.2018
11837.00,0.2019
11836.00,0.2020
11835.00,0.2024
11834.00,0.2029
11833.00,0.2034
11832.00,0.2039
11831.00,0.2043
11830.00,0.2044
11829.00,0.2044
11828.00,0.2043
11827.00,0.2042
11826.00,0.2041
11825.00,0.2039
11824.00,0.2037
11823.00,0.2034
11822.00,0.2031
11821.00,0.2028
11820.00,0.2027
11819.00,0.2028
11818.00,0.2029
11817.00,0.2030
11816.00,0.2031
11815.00,0.2031
11814.00,0.2033
11813.00,0.2035
11812.00,0.2039
11811.00,0.2044
11810.00,0.2047
11809.00,0.2049
11808.00,0.2048
11807.00,0.2046
11806.00,0.2043
11805.00,0.2042
11804.00,0.2043
11803.00,0.2044
11802.00,0.2044
11801.00,0.2041
11800.00,0.2037
11799.00,0.2033
11798.00,0.2032
11797.00,0.2034
11796.00,0.2039
11795.00,0.2044
11794.00,0.2047
11793.00,0.2047
11792.00,0.2045
11791.00,0.2044
11790.00,0.2043
11789.00,0.2046
11788.00,0.2049
11787.00,0.2050
11786.00,0.2049
11785.00,0.2044
11784.00,0.2038
11783.00,0.2034
11782.00,0.2032
11781.00,0.2033
11780.00,0.2035
11779.00,0.2037
11778.00,0.2038
11777.00,0.2038
11776.00,0.2037
11775.00,0.2036
11774.00,0.2036
11773.00,0.2035
11772.00,0.2034
11771.00,0.2034
11770.00,0.2033
11769.00,0.2033
11768.00,0.2034
11767.00,0.2034
11766.00,0.2034
11765.00,0.2034
11764.00,0.2033
11763.00,0.2034
11762.00,0.2035
11761.00,0.2037
11760.00,0.2039
11759.00,0.2039
11758.00,0.2038
11757.00,0.2036
11756.00,0.2033
11755.00,0.2030
11754.00,0.2028
11753.00,0.2028
11752.00,0.2028
11751.00,0.2029
11750.00,0.2031
11749.00,0.2033
11748.00,0.2034
11747.00,0.2033
11746.00,0.2031
11745.00,0.2029
11744.00,0.2028
11743.00,0.2030
11742.00,0.2033
11741.00,0.2037
11740.00,0.2038
11739.00,0.2037
11738.00,0.2033
11737.00,0.2029
11736.00,0.2027
11735.00,0.2028
11734.00,0.2033
11733.00,0.2038
11732.00,0.2042
11731.00,0.2044
11730.00,0.2043
11729.00,0.2041
11728.00,0.2040
11727.00,0.2041
11726.00,0.2044
11725.00,0.2047
11724.00,0.2049
11723.00,0.2050
11722.00,0.2049
11721.00,0.2047
11720.00,0.2045
11719.00,0.2044
11718.00,0.2044
11717.00,0.2045
11716.00,0.2047
11715.00,0.2049
11714.00,0.2051
11713.00,0.2050
11712.00,0.2048
11711.00,0.2045
11710.00,0.2041
11709.00,0.2037
11708.00,0.2035
11707.00,0.2034
11706.00,0.2033
11705.00,0.2032
11704.00,0.2029
11703.00,0.2025
11702.00,0.2022
11701.00,0.2019
11700.00,0.2019
11699.00,0.2022
11698.00,0.2027
11697.00,0.2032
11696.00,0.2036
11695.00,0.2038
11694.00,0.2039
11693.00,0.2039
11692.00,0.2039
11691.00,0.2040
11690.00,0.2041
11689.00,0.2042
11688.00,0.2043
11687.00,0.2042
11686.00,0.2040
11685.00,0.2038
11684.00,0.2036
11683.00,0.2035
11682.00,0.2034
11681.00,0.2033
11680.00,0.2033
11679.00,0.2033
11678.00,0.2034
11677.00,0.2036
11676.00,0.2038
11675.00,0.2040
11674.00,0.2040
11673.00,0.2040
11672.00,0.2039
11671.00,0.2039
11670.00,0.2041
11669.00,0.2043
11668.00,0.2046
11667.00,0.2047
11666.00,0.2046
11665.00,0.2044
11664.00,0.2041
11663.00,0.2039
11662.00,0.2038
11661.00,0.2039
11660.00,0.2042
11659.00,0.2044
11658.00,0.2045
11657.00,0.2044
11656.00,0.2043
11655.00,0.2041
11654.00,0.2039
11653.00,0.2038
11652.00,0.2039
11651.00,0.2040
11650.00,0.2041
11649.00,0.2042
11648.00,0.2042
11647.00,0.2042
11646.00,0.2041
11645.00,0.2040
11644.00,0.2039
11643.00,0.2039
11642.00,0.2039
11641.00,0.2040
11640.00,0.2041
11639.00,0.2041
11638.00,0.2040
11637.00,0.2039
11636.00,0.2037
11635.00,0.2035
11634.00,0.2035
11633.00,0.2035
11632.00,0.2035
11631.00,0.2035
11630.00,0.2035
11629.00,0.2034
11628.00,0.2035
11627.00,0.2037
11626.00,0.2040
11625.00,0.2043
11624.00,0.2042
11623.00,0.2039
11622.00,0.2036
11621.00,0.2033
11620.00,0.2034
11619.00,0.2037
11618.00,0.2042
11617.00,0.2046
11616.00,0.2046
11615.00,0.2044
11614.00,0.2041
11613.00,0.2039
11612.00,0.2040
11611.00,0.2043
11610.00,0.2046
11609.00,0.2047
11608.00,0.2047
11607.00,0.2045
11606.00,0.2044
11605.00,0.2043
11604.00,0.2042
11603.00,0.2041
11602.00,0.2039
11601.00,0.2036
11600.00,0.2033
11599.00,0.2033
11598.00,0.2034
11597.00,0.2036
11596.00,0.2038
11595.00,0.2038
11594.00,0.2037
11593.00,0.2036
11592.00,0.2037
11591.00,0.2038
11590.00,0.2041
11589.00,0.2044
11588.00,0.2046
11587.00,0.2048
11586.00,0.2048
11585.00,0.2048
11584.00,0.2046
11583.00,0.2045
11582.00,0.2044
11581.00,0.2044
11580.00,0.2044
11579.00,0.2046
11578.00,0.2046
11577.00,0.2047
11576.00,0.2046
11575.00,0.2044
11574.00,0.2043
11573.00,0.2042
11572.00,0.2043
11571.00,0.2044
11570.00,0.2046
11569.00,0.2048
11568.00,0.2050
11567.00,0.2051
11566.00,0.2051
11565.00,0.2050
11564.00,0.2047
11563.00,0.2045
11562.00,0.2045
11561.00,0.2047
11560.00,0.2049
11559.00,0.2052
11558.00,0.2052
11557.00,0.2050
11556.00,0.2047
11555.00,0.2043
11554.00,0.2042
11553.00,0.2043
11552.00,0.2046
11551.00,0.2049
11550.00,0.2051
11549.00,0.2050
11548.00,0.2049
11547.00,0.2047
11546.00,0.2046
11545.00,0.2046
11544.00,0.2047
11543.00,0.2048
11542.00,0.2049
11541.00,0.2049
11540.00,0.2050
11539.00,0.2051
11538.00,0.2052
11537.00,0.2052
11536.00,0.2051
11535.00,0.2048
11534.00,0.2045
11533.00,0.2042
11532.00,0.2040
11531.00,0.2039
11530.00,0.2039
11529.00,0.2039
11528.00,0.2041
11527.00,0.2041
11526.00,0.2041
11525.00,0.2041
11524.00,0.2042
11523.00,0.2044
11522.00,0.2048
11521.00,0.2052
11520.00,0.2056
11519.00,0.2058
11518.00,0.2059
11517.00,0.2057
11516.00,0.2055
11515.00,0.2052
11514.00,0.2050
11513.00,0.2048
11512.00,0.2047
11511.00,0.2047
11510.00,0.2046
11509.00,0.2045
11508.00,0.2045
11507.00,0.2044
11506.00,0.2043
11505.00,0.2042
11504.00,0.2041
11503.00,0.2041
11502.00,0.2041
11501.00,0.2041
11500.00,0.2042
11499.00,0.2043
11498.00,0.2043
11497.00,0.2045
11496.00,0.2048
11495.00,0.2051
11494.00,0.2055
11493.00,0.2058
11492.00,0.2059
11491.00,0.2058
11490.00,0.2057
11489.00,0.2057
11488.00,0.2057
11487.00,0.2059
11486.00,0.2060
11485.00,0.2059
11484.00,0.2055
11483.00,0.2049
11482.00,0.2044
11481.00,0.2039
11480.00,0.2036
11479.00,0.2035
11478.00,0.2035
11477.00,0.2035
11476.00,0.2035
11475.00,0.2036
11474.00,0.2037
11473.00,0.2038
11472.00,0.2039
11471.00,0.2039
11470.00,0.2039
11469.00,0.2040
11468.00,0.2042
11467.00,0.2045
11466.00,0.2046
11465.00,0.2046
11464.00,0.2045
11463.00,0.2043
11462.00,0.2043
11461.00,0.2045
11460.00,0.2048
11459.00,0.2051
11458.00,0.2053
11457.00,0.2053
11456.00,0.2052
11455.00,0.2052
11454.00,0.2052
11453.00,0.2054
11452.00,0.2055
11451.00,0.2055
11450.00,0.2052
11449.00,0.2048
11448.00,0.2045
11447.00,0.2043
11446.00,0.2044
11445.00,0.2045
11444.00,0.2047
11443.00,0.2047
11442.00,0.2047
11441.00,0.2047
11440.00,0.2048
11439.00,0.2049
11438.00,0.2051
11437.00,0.2054
11436.00,0.2055
11435.00,0.2054
11434.00,0.2053
11433.00,0.2050
11432.00,0.2048
11431.00,0.2047
11430.00,0.2047
11429.00,0.2048
11428.00,0.2050
11427.00,0.2051
11426.00,0.2052
11425.00,0.2051
11424.00,0.2050
11423.00,0.2050
11422.00,0.2050
11421.00,0.2050
11420.00,0.2050
11419.00,0.2050
11418.00,0.2049
11417.00,0.2048
11416.00,0.2046
11415.00,0.2045
11414.00,0.2044
11413.00,0.2044
11412.00,0.2044
11411.00,0.2045
11410.00,0.2045
11409.00,0.2045
11408.00,0.2045
11407.00,0.2045
11406.00,0.2045
11405.00,0.2045
11404.00,0.2045
11403.00,0.2046
11402.00,0.2047
11401.00,0.2048
11400.00,0.2049
11399.00,0.2050
11398.00,0.2051
11397.00,0.2050
11396.00,0.2049
11395.00,0.2048
11394.00,0.2049
11393.00,0.2051
11392.00,0.2054
11391.00,0.2056
11390.00,0.2057
11389.00,0.2055
11388.00,0.2052
11387.00,0.2048
11386.00,0.2047
11385.00,0.2048
11384.00,0.2051
11383.00,0.2053
11382.00,0.2053
11381.00,0.2050
11380.00,0.2044
11379.00,0.2039
11378.00,0.2036
11377.00,0.2036
11376.00,0.2039
11375.00,0.2042
11374.00,0.2045
11373.00,0.2046
11372.00,0.2046
11371.00,0.2047
11370.00,0.2049
11369.00,0.2052
11368.00,0.2055
11367.00,0.2058
11366.00,0.2058
11365.00,0.2056
11364.00,0.2053
11363.00,0.2050
11362.00,0.2047
11361.00,0.2045
11360.00,0.2043
11359.00,0.2041
11358.00,0.2040
11357.00,0.2039
11356.00,0.2040
11355.00,0.2041
11354.00,0.2043
11353.00,0.2045
11352.00,0.2046
11351.00,0.2048
11350.00,0.2049
11349.00,0.2051
11348.00,0.2052
11347.00,0.2053
11346.00,0.2052
11345.00,0.2050
11344.00,0.2048
11343.00,0.2047
11342.00,0.2047
11341.00,0.2048
11340.00,0.2048
11339.00,0.2047
11338.00,0.2045
11337.00,0.2044
11336.00,0.2044
11335.00,0.2046
11334.00,0.2049
11333.00,0.2052
11332.00,0.2053
11331.00,0.2053
11330.00,0.2054
11329.00,0.2056
11328.00,0.2060
11327.00,0.2064
11326.00,0.2068
11325.00,0.2069
11324.00,0.2068
11323.00,0.2067
11322.00,0.2067
11321.00,0.2069
11320.00,0.2071
11319.00,0.2072
11318.00,0.2071
11317.00,0.2067
11316.00,0.2062
11315.00,0.2057
11314.00,0.2054
11313.00,0.2053
11312.00,0.2053
11311.00,0.2053
11310.00,0.2052
11309.00,0.2049
11308.00,0.2045
11307.00,0.2044
11306.00,0.2044
11305.00,0.2048
11304.00,0.2052
11303.00,0.2055
11302.00,0.2057
11301.00,0.2056
11300.00,0.2055
11299.00,0.2054
11298.00,0.2055
11297.00,0.2057
11296.00,0.2060
11295.00,0.2062
11294.00,0.2061
11293.00,0.2059
11292.00,0.2055
11291.00,0.2053
11290.00,0.2052
11289.00,0.2054
11288.00,0.2056
11287.00,0.2058
11286.00,0.2059
11285.00,0.2059
11284.00,0.2058
11283.00,0.2056
11282.00,0.2055
11281.00,0.2054
11280.00,0.2053
11279.00,0.2053
11278.00,0.2053
11277.00,0.2053
11276.00,0.2052
11275.00,0.2051
11274.00,0.2051
11273.00,0.2050
11272.00,0.2050
11271.00,0.2051
11270.00,0.2052
11269.00,0.2054
11268.00,0.2054
11267.00,0.2053
11266.00,0.2052
11265.00,0.2051
11264.00,0.2052
11263.00,0.2053
11262.00,0.2056
11261.00,0.2059
11260.00,0.2059
11259.00,0.2058
11258.00,0.2056
11257.00,0.2054
11256.00,0.2054
11255.00,0.2055
11254.00,0.2057
11253.00,0.2057
11252.00,0.2055
11251.00,0.2053
11250.00,0.2051
11249.00,0.2051
11248.00,0.2053
11247.00,0.2056
11246.00,0.2059
11245.00,0.2061
11244.00,0.2060
11243.00,0.2059
11242.00,0.2059
11241.00,0.2059
11240.00,0.2060
11239.00,0.2061
11238.00,0.2060
11237.00,0.2058
11236.00,0.2055
11235.00,0.2052
11234.00,0.2049
11233.00,0.2048
11232.00,0.2048
11231.00,0.2049
11230.00,0.2051
11229.00,0.2054
11228.00,0.2056
11227.00,0.2058
11226.00,0.2059
11225.00,0.2060
11224.00,0.2061
11223.00,0.2062
11222.00,0.2063
11221.00,0.2064
11220.00,0.2065
11219.00,0.2066
11218.00,0.2066
11217.00,0.2064
11216.00,0.2062
11215.00,0.2059
11214.00,0.2058
11213.00,0.2057
11212.00,0.2058
11211.00,0.2060
11210.00,0.2061
11209.00,0.2061
11208.00,0.2062
11207.00,0.2062
11206.00,0.2062
11205.00,0.2064
11204.00,0.2066
11203.00,0.2067
11202.00,0.2068
11201.00,0.2067
11200.00,0.2065
11199.00,0.2061
11198.00,0.2058
11197.00,0.2056
11196.00,0.2055
11195.00,0.2056
11194.00,0.2058
11193.00,0.2059
11192.00,0.2058
11191.00,0.2056
11190.00,0.2054
11189.00,0.2052
11188.00,0.2051
11187.00,0.2053
11186.00,0.2056
11185.00,0.2059
11184.00,0.2060
11183.00,0.2059
11182.00,0.2057
11181.00,0.2054
11180.00,0.2052
11179.00,0.2051
11178.00,0.2051
11177.00,0.2052
11176.00,0.2054
11175.00,0.2055
11174.00,0.2055
11173.00,0.2056
11172.00,0.2057
11171.00,0.2057
11170.00,0.2057
11169.00,0.2058
11168.00,0.2059
11167.00,0.2061
11166.00,0.2064
11165.00,0.2066
11164.00,0.2066
11163.00,0.2066
11162.00,0.2063
11161.00,0.2061
11160.00,0.2059
11159.00,0.2058
11158.00,0.2058
11157.00,0.2057
11156.00,0.2056
11155.00,0.2055
11154.00,0.2053
11153.00,0.2053
11152.00,0.2053
11151.00,0.2054
11150.00,0.2055
11149.00,0.2056
11148.00,0.2057
11147.00,0.2057
11146.00,0.2057
11145.00,0.2058
11144.00,0.2059
11143.00,0.2059
11142.00,0.2058
11141.00,0.2056
11140.00,0.2054
11139.00,0.2052
11138.00,0.2051
11137.00,0.2052
11136.00,0.2054
11135.00,0.2056
11134.00,0.2057
11133.00,0.2057
11132.00,0.2057
11131.00,0.2058
11130.00,0.2059
11129.00,0.2061
11128.00,0.2063
11127.00,0.2064
11126.00,0.2064
11125.00,0.2062
11124.00,0.2060
11123.00,0.2058
11122.00,0.2057
11121.00,0.2056
11120.00,0.2056
11119.00,0.2057
11118.00,0.2057
11117.00,0.2058
11116.00,0.2058
11115.00,0.2058
11114.00,0.2057
11113.00,0.2057
11112.00,0.2057
11111.00,0.2057
11110.00,0.2058
11109.00,0.2058
11108.00,0.2058
11107.00,0.2057
11106.00,0.2057
11105.00,0.2057
11104.00,0.2058
11103.00,0.2059
11102.00,0.2060
11101.00,0.2060
11100.00,0.2061
11099.00,0.2062
11098.00,0.2063
11097.00,0.2064
11096.00,0.2065
11095.00,0.2065
11094.00,0.2063
11093.00,0.2061
11092.00,0.2059
11091.00,0.2057
11090.00,0.2057
11089.00,0.2058
11088.00,0.2059
11087.00,0.2060
11086.00,0.2060
11085.00,0.2061
11084.00,0.2060
11083.00,0.2060
11082.00,0.2060
11081.00,0.2059
11080.00,0.2059
11079.00,0.2058
11078.00,0.2057
11077.00,0.2055
11076.00,0.2052
11075.00,0.2049
11074.00,0.2047
11073.00,0.2046
11072.00,0.2046
11071.00,0.2048
11070.00,0.2051
11069.00,0.2055
11068.00,0.2057
11067.00,0.2059
11066.00,0.2060
11065.00,0.2059
11064.00,0.2059
11063.00,0.2060
11062.00,0.2062
11061.00,0.2065
11060.00,0.2069
11059.00,0.2072
11058.00,0.2073
11057.00,0.2071
11056.00,0.2068
11055.00,0.2066
11054.00,0.2065
11053.00,0.2066
11052.00,0.2068
11051.00,0.2069
11050.00,0.2069
11049.00,0.2066
11048.00,0.2062
11047.00,0.2059
11046.00,0.2057
11045.00,0.2057
11044.00,0.2058
11043.00,0.2058
11042.00,0.2058
11041.00,0.2058
11040.00,0.2059
11039.00,0.2060
11038.00,0.2061
11037.00,0.2061
11036.00,0.2060
11035.00,0.2059
11034.00,0.2058
11033.00,0.2060
11032.00,0.2062
11031.00,0.2066
11030.00,0.2068
11029.00,0.2070
11028.00,0.2070
11027.00,0.2069
11026.00,0.2067
11025.00,0.2065
11024.00,0.2063
11023.00,0.2061
11022.00,0.2060
11021.00,0.2060
11020.00,0.2059
11019.00,0.2058
11018.00,0.2056
11017.00,0.2053
11016.00,0.2051
11015.00,0.2051
11014.00,0.2055
11013.00,0.2060
11012.00,0.2064
11011.00,0.2067
11010.00,0.2066
11009.00,0.2064
11008.00,0.2063
11007.00,0.2064
11006.00,0.2067
11005.00,0.2070
11004.00,0.2070
11003.00,0.2068
11002.00,0.2064
11001.00,0.2059
11000.00,0.2056
10999.00,0.2055
10998.00,0.2057
10997.00,0.2059
10996.00,0.2060
10995.00,0.2060
10994.00,0.2060
10993.00,0.2060
10992.00,0.2060
10991.00,0.2061
10990.00,0.2061
10989.00,0.2061
10988.00,0.2062
10987.00,0.2062
10986.00,0.2063
10985.00,0.2062
10984.00,0.2061
10983.00,0.2058
10982.00,0.2054
10981.00,0.2052
10980.00,0.2051
10979.00,0.2053
10978.00,0.2055
10977.00,0.2056
10976.00,0.2054
10975.00,0.2052
10974.00,0.2051
10973.00,0.2052
10972.00,0.2057
10971.00,0.2063
10970.00,0.2068
10969.00,0.2070
10968.00,0.2069
10967.00,0.2067
10966.00,0.2065
10965.00,0.2065
10964.00,0.2067
10963.00,0.2069
10962.00,0.2071
10961.00,0.2070
10960.00,0.2067
10959.00,0.2062
10958.00,0.2057
10957.00,0.2054
10956.00,0.2054
10955.00,0.2056
10954.00,0.2059
10953.00,0.2061
10952.00,0.2062
10951.00,0.2062
10950.00,0.2062
10949.00,0.2064
10948.00,0.2066
10947.00,0.2068
10946.00,0.2069
10945.00,0.2069
10944.00,0.2066
10943.00,0.2063
10942.00,0.2061
10941.00,0.2059
10940.00,0.2058
10939.00,0.2057
10938.00,0.2057
10937.00,0.2056
10936.00,0.2056
10935.00,0.2054
10934.00,0.2054
10933.00,0.2054
10932.00,0.2056
10931.00,0.2059
10930.00,0.2063
10929.00,0.2066
10928.00,0.2067
10927.00,0.2066
10926.00,0.2065
10925.00,0.2064
10924.00,0.2065
10923.00,0.2068
10922.00,0.2072
10921.00,0.2075
10920.00,0.2077
10919.00,0.2077
10918.00,0.2076
10917.00,0.2075
10916.00,0.2074
10915.00,0.2074
10914.00,0.2073
10913.00,0.2073
10912.00,0.2073
10911.00,0.2073
10910.00,0.2073
10909.00,0.2072
10908.00,0.2071
10907.00,0.2067
10906.00,0.2064
10905.00,0.2061
10904.00,0.2059
10903.00,0.2060
10902.00,0.2061
10901.00,0.2062
10900.00,0.2062
10899.00,0.2060
10898.00,0.2056
10897.00,0.2054
10896.00,0.2053
10895.00,0.2055
10894.00,0.2057
10893.00,0.2059
10892.00,0.2060
10891.00,0.2058
10890.00,0.2057
10889.00,0.2055
10888.00,0.2055
10887.00,0.2055
10886.00,0.2056
10885.00,0.2056
10884.00,0.2055
10883.00,0.2055
10882.00,0.2055
10881.00,0.2055
10880.00,0.2056
10879.00,0.2057
10878.00,0.2057
10877.00,0.2057
10876.00,0.2056
10875.00,0.2056
10874.00,0.2056
10873.00,0.2057
10872.00,0.2059
10871.00,0.2062
10870.00,0.2064
10869.00,0.2065
10868.00,0.2065
10867.00,0.2064
10866.00,0.2062
10865.00,0.2061
10864.00,0.2060
10863.00,0.2060
10862.00,0.2060
10861.00,0.2061
10860.00,0.2061
10859.00,0.2061
10858.00,0.2060
10857.00,0.2059
10856.00,0.2058
10855.00,0.2057
10854.00,0.2057
10853.00,0.2058
10852.00,0.2061
10851.00,0.2064
10850.00,0.2067
10849.00,0.2068
10848.00,0.2068
10847.00,0.2068
10846.00,0.2068
10845.00,0.2069
10844.00,0.2070
10843.00,0.2070
10842.00,0.2068
10841.00,0.2065
10840.00,0.2063
10839.00,0.2063
10838.00,0.2063
10837.00,0.2063
10836.00,0.2061
10835.00,0.2058
10834.00,0.2054
10833.00,0.2052
10832.00,0.2051
10831.00,0.2053
10830.00,0.2055
10829.00,0.2056
10828.00,0.2055
10827.00,0.2053
10826.00,0.2051
10825.00,0.2050
10824.00,0.2049
10823.00,0.2049
10822.00,0.2051
10821.00,0.2052
10820.00,0.2054
10819.00,0.2057
10818.00,0.2059
10817.00,0.2061
10816.00,0.2061
10815.00,0.2060
10814.00,0.2059
10813.00,0.2059
10812.00,0.2059
10811.00,0.2059
10810.00,0.2060
10809.00,0.2059
10808.00,0.2059
10807.00,0.2058
10806.00,0.2057
10805.00,0.2056
10804.00,0.2056
10803.00,0.2056
10802.00,0.2057
10801.00,0.2059
10800.00,0.2060
10799.00,0.2060
10798.00,0.2060
10797.00,0.2060
10796.00,0.2060
10795.00,0.2060
10794.00,0.2061
10793.00,0.2062
10792.00,0.2063
10791.00,0.2064
10790.00,0.2066
10789.00,0.2067
10788.00,0.2067
10787.00,0.2067
10786.00,0.2065
10785.00,0.2064
10784.00,0.2064
10783.00,0.2064
10782.00,0.2065
10781.00,0.2066
10780.00,0.2065
10779.00,0.2063
10778.00,0.2061
10777.00,0.2059
10776.00,0.2058
10775.00,0.2058
10774.00,0.2058
10773.00,0.2057
10772.00,0.2056
10771.00,0.2055
10770.00,0.2054
10769.00,0.2054
10768.00,0.2054
10767.00,0.2055
10766.00,0.2056
10765.00,0.2057
10764.00,0.2058
10763.00,0.2061
10762.00,0.2062
10761.00,0.2063
10760.00,0.2063
10759.00,0.2061
10758.00,0.2059
10757.00,0.2058
10756.00,0.2057
10755.00,0.2058
10754.00,0.2059
10753.00,0.2060
10752.00,0.2060
10751.00,0.2061
10750.00,0.2062
10749.00,0.2063
10748.00,0.2065
10747.00,0.2066
10746.00,0.2068
10745.00,0.2069
10744.00,0.2069
10743.00,0.2068
10742.00,0.2067
10741.00,0.2065
10740.00,0.2064
10739.00,0.2063
10738.00,0.2063
10737.00,0.2064
10736.00,0.2063
10735.00,0.2063
10734.00,0.2062
10733.00,0.2062
10732.00,0.2063
10731.00,0.2065
10730.00,0.2066
10729.00,0.2065
10728.00,0.2063
10727.00,0.2059
10726.00,0.2057
10725.00,0.2056
10724.00,0.2056
10723.00,0.2058
10722.00,0.2059
10721.00,0.2059
10720.00,0.2059
10719.00,0.2059
10718.00,0.2058
10717.00,0.2058
10716.00,0.2058
10715.00,0.2058
10714.00,0.2058
10713.00,0.2059
10712.00,0.2059
10711.00,0.2058
10710.00,0.2057
10709.00,0.2055
10708.00,0.2054
10707.00,0.2054
10706.00,0.2055
10705.00,0.2057
10704.00,0.2059
10703.00,0.2060
10702.00,0.2060
10701.00,0.2060
10700.00,0.2061
10699.00,0.2062
10698.00,0.2064
10697.00,0.2065
10696.00,0.2065
10695.00,0.2063
10694.00,0.2061
10693.00,0.2059
10692.00,0.2058
10691.00,0.2059
10690.00,0.2061
10689.00,0.2063
10688.00,0.2063
10687.00,0.2061
10686.00,0.2058
10685.00,0.2055
10684.00,0.2053
10683.00,0.2053
10682.00,0.2054
10681.00,0.2054
10680.00,0.2054
10679.00,0.2052
10678.00,0.2051
10677.00,0.2050
10676.00,0.2050
10675.00,0.2051
10674.00,0.2053
10673.00,0.2056
10672.00,0.2058
10671.00,0.2061
10670.00,0.2062
10669.00,0.2063
10668.00,0.2063
10667.00,0.2062
10666.00,0.2062
10665.00,0.2063
10664.00,0.2064
10663.00,0.2065
10662.00,0.2064
10661.00,0.2063
10660.00,0.2061
10659.00,0.2059
10658.00,0.2058
10657.00,0.2058
10656.00,0.2058
10655.00,0.2058
10654.00,0.2057
10653.00,0.2057
10652.00,0.2058
10651.00,0.2060
10650.00,0.2063
10649.00,0.2066
10648.00,0.2067
10647.00,0.2067
10646.00,0.2066
10645.00,0.2065
10644.00,0.2064
10643.00,0.2062
10642.00,0.2061
10641.00,0.2058
10640.00,0.2057
10639.00,0.2056
10638.00,0.2058
10637.00,0.2061
10636.00,0.2064
10635.00,0.2066
10634.00,0.2066
10633.00,0.2064
10632.00,0.2064
10631.00,0.2066
10630.00,0.2070
10629.00,0.2073
10628.00,0.2074
10627.00,0.2072
10626.00,0.2069
10625.00,0.2066
10624.00,0.2065
10623.00,0.2067
10622.00,0.2070
10621.00,0.2071
10620.00,0.2071
10619.00,0.2068
10618.00,0.2066
10617.00,0.2065
10616.00,0.2066
10615.00,0.2068
10614.00,0.2070
10613.00,0.2071
10612.00,0.2071
10611.00,0.2071
10610.00,0.2071
10609.00,0.2072
10608.00,0.2073
10607.00,0.2074
10606.00,0.2074
10605.00,0.2075
10604.00,0.2074
10603.00,0.2074
10602.00,0.2074
10601.00,0.2073
10600.00,0.2072
10599.00,0.2071
10598.00,0.2071
10597.00,0.2071
10596.00,0.2072
10595.00,0.2072
10594.00,0.2072
10593.00,0.2071
10592.00,0.2070
10591.00,0.2070
10590.00,0.2071
10589.00,0.2073
10588.00,0.2075
10587.00,0.2076
10586.00,0.2075
10585.00,0.2073
10584.00,0.2071
10583.00,0.2071
10582.00,0.2072
10581.00,0.2073
10580.00,0.2074
10579.00,0.2074
10578.00,0.2075
10577.00,0.2075
10576.00,0.2076
10575.00,0.2076
10574.00,0.2076
10573.00,0.2074
10572.00,0.2073
10571.00,0.2071
10570.00,0.2071
10569.00,0.2072
10568.00,0.2072
10567.00,0.2073
10566.00,0.2073
10565.00,0.2073
10564.00,0.2073
10563.00,0.2074
10562.00,0.2075
10561.00,0.2076
10560.00,0.2077
10559.00,0.2078
10558.00,0.2079
10557.00,0.2080
10556.00,0.2079
10555.00,0.2078
10554.00,0.2077
10553.00,0.2077
10552.00,0.2078
10551.00,0.2079
10550.00,0.2082
10549.00,0.2083
10548.00,0.2082
10547.00,0.2080
10546.00,0.2077
10545.00,0.2074
10544.00,0.2072
10543.00,0.2073
10542.00,0.2074
10541.00,0.2076
10540.00,0.2077
10539.00,0.2077
10538.00,0.2076
10537.00,0.2076
10536.00,0.2078
10535.00,0.2080
10534.00,0.2083
10533.00,0.2086
10532.00,0.2086
10531.00,0.2085
10530.00,0.2083
10529.00,0.2082
10528.00,0.2083
10527.00,0.2085
10526.00,0.2087
10525.00,0.2089
10524.00,0.2089
10523.00,0.2089
10522.00,0.2090
10521.00,0.2092
10520.00,0.2096
10519.00,0.2098
10518.00,0.2098
10517.00,0.2095
10516.00,0.2090
10515.00,0.2087
10514.00,0.2086
10513.00,0.2086
10512.00,0.2088
10511.00,0.2089
10510.00,0.2089
10509.00,0.2088
10508.00,0.2087
10507.00,0.2088
10506.00,0.2091
10505.00,0.2094
10504.00,0.2096
10503.00,0.2095
10502.00,0.2092
10501.00,0.2089
10500.00,0.2087
10499.00,0.2087
10498.00,0.2089
10497.00,0.2090
10496.00,0.2091
10495.00,0.2089
10494.00,0.2088
10493.00,0.2088
10492.00,0.2091
10491.00,0.2094
10490.00,0.2098
10489.00,0.2100
10488.00,0.2099
10487.00,0.2098
10486.00,0.2097
10485.00,0.2097
10484.00,0.2098
10483.00,0.2098
10482.00,0.2098
10481.00,0.2096
10480.00,0.2095
10479.00,0.2094
10478.00,0.2095
10477.00,0.2097
10476.00,0.2098
10475.00,0.2099
10474.00,0.2098
10473.00,0.2096
10472.00,0.2095
10471.00,0.2096
10470.00,0.2098
10469.00,0.2100
10468.00,0.2102
10467.00,0.2102
10466.00,0.2101
10465.00,0.2099
10464.00,0.2097
10463.00,0.2097
10462.00,0.2098
10461.00,0.2100
10460.00,0.2102
10459.00,0.2102
10458.00,0.2101
10457.00,0.2099
10456.00,0.2098
10455.00,0.2097
10454.00,0.2096
10453.00,0.2096
10452.00,0.2097
10451.00,0.2097
10450.00,0.2097
10449.00,0.2098
10448.00,0.2099
10447.00,0.2101
10446.00,0.2102
10445.00,0.2102
10444.00,0.2101
10443.00,0.2100
10442.00,0.2099
10441.00,0.2100
10440.00,0.2102
10439.00,0.2106
10438.00,0.2108
10437.00,0.2109
10436.00,0.2108
10435.00,0.2106
10434.00,0.2105
10433.00,0.2107
10432.00,0.2109
10431.00,0.2111
10430.00,0.2113
10429.00,0.2113
10428.00,0.2112
10427.00,0.2111
10426.00,0.2111
10425.00,0.2111
10424.00,0.2111
10423.00,0.2112
10422.00,0.2112
10421.00,0.2113
10420.00,0.2112
10419.00,0.2111
10418.00,0.2109
10417.00,0.2107
10416.00,0.2106
10415.00,0.2105
10414.00,0.2106
10413.00,0.2107
10412.00,0.2109
10411.00,0.2110
10410.00,0.2111
10409.00,0.2113
10408.00,0.2113
10407.00,0.2114
10406.00,0.2114
10405.00,0.2114
10404.00,0.2114
10403.00,0.2114
10402.00,0.2113
10401.00,0.2111
10400.00,0.2109
10399.00,0.2107
10398.00,0.2108
10397.00,0.2112
10396.00,0.2116
10395.00,0.2119
10394.00,0.2119
10393.00,0.2118
10392.00,0.2118
10391.00,0.2119
10390.00,0.2121
10389.00,0.2122
10388.00,0.2123
10387.00,0.2122
10386.00,0.2121
10385.00,0.2120
10384.00,0.2121
10383.00,0.2121
10382.00,0.2121
10381.00,0.2119
10380.00,0.2117
10379.00,0.2116
10378.00,0.2117
10377.00,0.2118
10376.00,0.2117
10375.00,0.2116
10374.00,0.2114
10373.00,0.2114
10372.00,0.2115
10371.00,0.2118
10370.00,0.2120
10369.00,0.2121
10368.00,0.2119
10367.00,0.2117
10366.00,0.2117
10365.00,0.2118
10364.00,0.2121
10363.00,0.2123
10362.00,0.2123
10361.00,0.2120
10360.00,0.2118
10359.00,0.2118
10358.00,0.2120
10357.00,0.2123
10356.00,0.2127
10355.00,0.2128
10354.00,0.2127
10353.00,0.2126
10352.00,0.2125
10351.00,0.2126
10350.00,0.2127
10349.00,0.2128
10348.00,0.2128
10347.00,0.2127
10346.00,0.2127
10345.00,0.2127
10344.00,0.2128
10343.00,0.2130
10342.00,0.2131
10341.00,0.2131
10340.00,0.2131
10339.00,0.2130
10338.00,0.2131
10337.00,0.2131
10336.00,0.2131
10335.00,0.2131
10334.00,0.2130
10333.00,0.2130
10332.00,0.2130
10331.00,0.2130
10330.00,0.2130
10329.00,0.2129
10328.00,0.2129
10327.00,0.2129
10326.00,0.2130
10325.00,0.2131
10324.00,0.2132
10323.00,0.2132
10322.00,0.2132
10321.00,0.2131
10320.00,0.2130
10319.00,0.2130
10318.00,0.2131
10317.00,0.2131
10316.00,0.2131
10315.00,0.2130
10314.00,0.2128
10313.00,0.2127
10312.00,0.2127
10311.00,0.2128
10310.00,0.2131
10309.00,0.2134
10308.00,0.2135
10307.00,0.2135
10306.00,0.2135
10305.00,0.2135
10304.00,0.2137
10303.00,0.2139
10302.00,0.2142
10301.00,0.2143
10300.00,0.2143
10299.00,0.2141
10298.00,0.2140
10297.00,0.2138
10296.00,0.2137
10295.00,0.2137
10294.00,0.2136
10293.00,0.2136
10292.00,0.2137
10291.00,0.2138
10290.00,0.2139
10289.00,0.2139
10288.00,0.2140
10287.00,0.2141
10286.00,0.2142
10285.00,0.2144
10284.00,0.2145
10283.00,0.2144
10282.00,0.2143
10281.00,0.2142
10280.00,0.2143
10279.00,0.2144
10278.00,0.2146
10277.00,0.2147
10276.00,0.2146
10275.00,0.2145
10274.00,0.2145
10273.00,0.2146
10272.00,0.2147
10271.00,0.2147
10270.00,0.2146
10269.00,0.2144
10268.00,0.2142
10267.00,0.2142
10266.00,0.2143
10265.00,0.2145
10264.00,0.2146
10263.00,0.2147
10262.00,0.2146
10261.00,0.2147
10260.00,0.2148
10259.00,0.2150
10258.00,0.2152
10257.00,0.2151
10256.00,0.2150
10255.00,0.2149
10254.00,0.2148
10253.00,0.2149
10252.00,0.2150
10251.00,0.2150
10250.00,0.2150
10249.00,0.2149
10248.00,0.2148
10247.00,0.2148
10246.00,0.2149
10245.00,0.2149
10244.00,0.2149
10243.00,0.2149
10242.00,0.2150
10241.00,0.2152
10240.00,0.2153
10239.00,0.2153
10238.00,0.2152
10237.00,0.2151
10236.00,0.2150
10235.00,0.2151
10234.00,0.2152
10233.00,0.2153
10232.00,0.2153
10231.00,0.2151
10230.00,0.2149
10229.00,0.2149
10228.00,0.2150
10227.00,0.2154
10226.00,0.2157
10225.00,0.2160
10224.00,0.2161
10223.00,0.2160
10222.00,0.2159
10221.00,0.2159
10220.00,0.2160
10219.00,0.2159
10218.00,0.2158
10217.00,0.2156
10216.00,0.2155
10215.00,0.2154
10214.00,0.2154
10213.00,0.2155
10212.00,0.2156
10211.00,0.2156
10210.00,0.2155
10209.00,0.2155
10208.00,0.2155
10207.00,0.2156
10206.00,0.2157
10205.00,0.2157
10204.00,0.2157
10203.00,0.2156
10202.00,0.2156
10201.00,0.2156
10200.00,0.2156
10199.00,0.2156
10198.00,0.2156
10197.00,0.2156
10196.00,0.2156
10195.00,0.2157
10194.00,0.2158
10193.00,0.2159
10192.00,0.2159
10191.00,0.2160
10190.00,0.2161
10189.00,0.2162
10188.00,0.2163
10187.00,0.2164
10186.00,0.2163
10185.00,0.2162
10184.00,0.2161
10183.00,0.2162
10182.00,0.2162
10181.00,0.2163
10180.00,0.2162
10179.00,0.2161
10178.00,0.2160
10177.00,0.2160
10176.00,0.2160
10175.00,0.2161
10174.00,0.2162
10173.00,0.2162
10172.00,0.2162
10171.00,0.2161
10170.00,0.2161
10169.00,0.2161
10168.00,0.2162
10167.00,0.2163
10166.00,0.2165
10165.00,0.2166
10164.00,0.2167
10163.00,0.2168
10162.00,0.2168
10161.00,0.2168
10160.00,0.2168
10159.00,0.2167
10158.00,0.2165
10157.00,0.2164
10156.00,0.2163
10155.00,0.2162
10154.00,0.2161
10153.00,0.2161
10152.00,0.2161
10151.00,0.2163
10150.00,0.2164
10149.00,0.2166
10148.00,0.2166
10147.00,0.2167
10146.00,0.2167
10145.00,0.2169
10144.00,0.2170
10143.00,0.2171
10142.00,0.2171
10141.00,0.2169
10140.00,0.2166
10139.00,0.2165
10138.00,0.2165
10137.00,0.2166
10136.00,0.2168
10135.00,0.2169
10134.00,0.2168
10133.00,0.2166
10132.00,0.2164
10131.00,0.2163
10130.00,0.2164
10129.00,0.2166
10128.00,0.2169
10127.00,0.2172
10126.00,0.2173
10125.00,0.2173
10124.00,0.2171
10123.00,0.2171
10122.00,0.2171
10121.00,0.2173
10120.00,0.2175
10119.00,0.2176
10118.00,0.2176
10117.00,0.2175
10116.00,0.2173
10115.00,0.2173
10114.00,0.2172
10113.00,0.2171
10112.00,0.2170
10111.00,0.2169
10110.00,0.2168
10109.00,0.2168
10108.00,0.2167
10107.00,0.2167
10106.00,0.2166
10105.00,0.2166
10104.00,0.2166
10103.00,0.2167
10102.00,0.2168
10101.00,0.2168
10100.00,0.2169
10099.00,0.2170
10098.00,0.2170
10097.00,0.2171
10096.00,0.2171
10095.00,0.2169
10094.00,0.2167
10093.00,0.2165
10092.00,0.2165
10091.00,0.2166
10090.00,0.2167
10089.00,0.2168
10088.00,0.2169
10087.00,0.2168
10086.00,0.2168
10085.00,0.2168
10084.00,0.2169
10083.00,0.2169
10082.00,0.2169
10081.00,0.2168
10080.00,0.2166
10079.00,0.2165
10078.00,0.2165
10077.00,0.2166
10076.00,0.2168
10075.00,0.2168
10074.00,0.2169
10073.00,0.2169
10072.00,0.2170
10071.00,0.2172
10070.00,0.2174
10069.00,0.2175
10068.00,0.2174
10067.00,0.2171
10066.00,0.2168
10065.00,0.2165
10064.00,0.2165
10063.00,0.2165
10062.00,0.2167
10061.00,0.2168
10060.00,0.2170
10059.00,0.2171
10058.00,0.2172
10057.00,0.2173
10056.00,0.2174
10055.00,0.2174
10054.00,0.2174
10053.00,0.2175
10052.00,0.2175
10051.00,0.2174
10050.00,0.2172
10049.00,0.2169
10048.00,0.2166
10047.00,0.2164
10046.00,0.2165
10045.00,0.2166
10044.00,0.2169
10043.00,0.2170
10042.00,0.2169
10041.00,0.2168
10040.00,0.2167
10039.00,0.2168
10038.00,0.2169
10037.00,0.2170
10036.00,0.2170
10035.00,0.2169
10034.00,0.2167
10033.00,0.2165
10032.00,0.2164
10031.00,0.2165
10030.00,0.2165
10029.00,0.2164
10028.00,0.2163
10027.00,0.2163
10026.00,0.2164
10025.00,0.2167
10024.00,0.2169
10023.00,0.2171
10022.00,0.2171
10021.00,0.2171
10020.00,0.2171
10019.00,0.2171
10018.00,0.2172
10017.00,0.2171
10016.00,0.2171
10015.00,0.2170
10014.00,0.2169
10013.00,0.2170
10012.00,0.2170
10011.00,0.2171
10010.00,0.2171
10009.00,0.2171
10008.00,0.2172
10007.00,0.2172
10006.00,0.2172
10005.00,0.2171
10004.00,0.2169
10003.00,0.2167
10002.00,0.2167
10001.00,0.2167
10000.00,0.2167
9999.00,0.2167
9998.00,0.2166
9997.00,0.2166
9996.00,0.2167
9995.00,0.2168
9994.00,0.2169
9993.00,0.2170
9992.00,0.2169
9991.00,0.2167
9990.00,0.2167
9989.00,0.2167
9988.00,0.2167
9987.00,0.2167
9986.00,0.2166
9985.00,0.2165
9984.00,0.2164
9983.00,0.2164
9982.00,0.2165
9981.00,0.2167
9980.00,0.2169
9979.00,0.2171
9978.00,0.2172
9977.00,0.2172
9976.00,0.2173
9975.00,0.2173
9974.00,0.2172
9973.00,0.2172
9972.00,0.2171
9971.00,0.2170
9970.00,0.2170
9969.00,0.2170
9968.00,0.2170
9967.00,0.2170
9966.00,0.2170
9965.00,0.2170
9964.00,0.2172
9963.00,0.2173
9962.00,0.2174
9961.00,0.2173
9960.00,0.2170
9959.00,0.2168
9958.00,0.2165
9957.00,0.2165
9956.00,0.2165
9955.00,0.2166
9954.00,0.2165
9953.00,0.2164
9952.00,0.2162
9951.00,0.2163
9950.00,0.2165
9949.00,0.2168
9948.00,0.2170
9947.00,0.2170
9946.00,0.2167
9945.00,0.2164
9944.00,0.2162
9943.00,0.2161
9942.00,0.2163
9941.00,0.2165
9940.00,0.2166
9939.00,0.2167
9938.00,0.2167
9937.00,0.2167
9936.00,0.2168
9935.00,0.2168
9934.00,0.2167
9933.00,0.2166
9932.00,0.2165
9931.00,0.2165
9930.00,0.2165
9929.00,0.2165
9928.00,0.2164
9927.00,0.2163
9926.00,0.2162
9925.00,0.2163
9924.00,0.2166
9923.00,0.2169
9922.00,0.2171
9921.00,0.2172
9920.00,0.2172
9919.00,0.2171
9918.00,0.2171
9917.00,0.2171
9916.00,0.2171
9915.00,0.2171
9914.00,0.2170
9913.00,0.2170
9912.00,0.2170
9911.00,0.2169
9910.00,0.2168
9909.00,0.2167
9908.00,0.2166
9907.00,0.2165
9906.00,0.2166
9905.00,0.2167
9904.00,0.2168
9903.00,0.2167
9902.00,0.2165
9901.00,0.2164
9900.00,0.2163
9899.00,0.2163
9898.00,0.2164
9897.00,0.2165
9896.00,0.2165
9895.00,0.2165
9894.00,0.2165
9893.00,0.2165
9892.00,0.2165
9891.00,0.2166
9890.00,0.2167
9889.00,0.2168
9888.00,0.2169
9887.00,0.2170
9886.00,0.2170
9885.00,0.2169
9884.00,0.2168
9883.00,0.2167
9882.00,0.2166
9881.00,0.2167
9880.00,0.2168
9879.00,0.2168
9878.00,0.2167
9877.00,0.2166
9876.00,0.2164
9875.00,0.2164
9874.00,0.2165
9873.00,0.2166
9872.00,0.2166
9871.00,0.2166
9870.00,0.2165
9869.00,0.2164
9868.00,0.2165
9867.00,0.2166
9866.00,0.2166
9865.00,0.2165
9864.00,0.2164
9863.00,0.2162
9862.00,0.2162
9861.00,0.2163
9860.00,0.2164
9859.00,0.2166
9858.00,0.2167
9857.00,0.2168
9856.00,0.2167
9855.00,0.2167
9854.00,0.2167
9853.00,0.2167
9852.00,0.2168
9851.00,0.2168
9850.00,0.2168
9849.00,0.2167
9848.00,0.2166
9847.00,0.2164
9846.00,0.2164
9845.00,0.2165
9844.00,0.2166
9843.00,0.2168
9842.00,0.2169
9841.00,0.2170
9840.00,0.2170
9839.00,0.2169
9838.00,0.2168
9837.00,0.2166
9836.00,0.2165
9835.00,0.2165
9834.00,0.2164
9833.00,0.2164
9832.00,0.2163
9831.00,0.2161
9830.00,0.2161
9829.00,0.2161
9828.00,0.2162
9827.00,0.2163
9826.00,0.2164
9825.00,0.2164
9824.00,0.2164
9823.00,0.2165
9822.00,0.2166
9821.00,0.2168
9820.00,0.2169
9819.00,0.2168
9818.00,0.2167
9817.00,0.2166
9816.00,0.2166
9815.00,0.2167
9814.00,0.2167
9813.00,0.2166
9812.00,0.2164
9811.00,0.2162
9810.00,0.2161
9809.00,0.2161
9808.00,0.2162
9807.00,0.2162
9806.00,0.2163
9805.00,0.2163
9804.00,0.2163
9803.00,0.2163
9802.00,0.2163
9801.00,0.2162
9800.00,0.2161
9799.00,0.2161
9798.00,0.2160
9797.00,0.2161
9796.00,0.2162
9795.00,0.2163
9794.00,0.2163
9793.00,0.2163
9792.00,0.2163
9791.00,0.2163
9790.00,0.2163
9789.00,0.2165
9788.00,0.2166
9787.00,0.2166
9786.00,0.2166
9785.00,0.2164
9784.00,0.2162
9783.00,0.2162
9782.00,0.2162
9781.00,0.2163
9780.00,0.2165
9779.00,0.2167
9778.00,0.2167
9777.00,0.2167
9776.00,0.2166
9775.00,0.2165
9774.00,0.2165
9773.00,0.2164
9772.00,0.2164
9771.00,0.2164
9770.00,0.2164
9769.00,0.2164
9768.00,0.2164
9767.00,0.2164
9766.00,0.2163
9765.00,0.2163
9764.00,0.2165
9763.00,0.2166
9762.00,0.2167
9761.00,0.2167
9760.00,0.2165
9759.00,0.2163
9758.00,0.2161
9757.00,0.2160
9756.00,0.2161
9755.00,0.2161
9754.00,0.2162
9753.00,0.2162
9752.00,0.2161
9751.00,0.2161
9750.00,0.2161
9749.00,0.2161
9748.00,0.2161
9747.00,0.2161
9746.00,0.2161
9745.00,0.2160
9744.00,0.2160
9743.00,0.2159
9742.00,0.2159
9741.00,0.2159
9740.00,0.2159
9739.00,0.2159
9738.00,0.2158
9737.00,0.2156
9736.00,0.2155
9735.00,0.2154
9734.00,0.2155
9733.00,0.2155
9732.00,0.2154
9731.00,0.2153
9730.00,0.2153
9729.00,0.2153
9728.00,0.2154
9727.00,0.2156
9726.00,0.2158
9725.00,0.2158
9724.00,0.2158
9723.00,0.2156
9722.00,0.2156
9721.00,0.2157
9720.00,0.2158
9719.00,0.2159
9718.00,0.2159
9717.00,0.2159
9716.00,0.2158
9715.00,0.2159
9714.00,0.2159
9713.00,0.2159
9712.00,0.2159
9711.00,0.2159
9710.00,0.2157
9709.00,0.2157
9708.00,0.2156
9707.00,0.2156
9706.00,0.2157
9705.00,0.2157
9704.00,0.2158
9703.00,0.2158
9702.00,0.2158
9701.00,0.2158
9700.00,0.2158
9699.00,0.2157
9698.00,0.2157
9697.00,0.2155
9696.00,0.2154
9695.00,0.2153
9694.00,0.2153
9693.00,0.2154
9692.00,0.2155
9691.00,0.2157
9690.00,0.2158
9689.00,0.2158
9688.00,0.2159
9687.00,0.2160
9686.00,0.2161
9685.00,0.2162
9684.00,0.2161
9683.00,0.2159
9682.00,0.2156
9681.00,0.2155
9680.00,0.2154
9679.00,0.2154
9678.00,0.2154
9677.00,0.2153
9676.00,0.2151
9675.00,0.2151
9674.00,0.2151
9673.00,0.2152
9672.00,0.2152
9671.00,0.2152
9670.00,0.2151
9669.00,0.2150
9668.00,0.2151
9667.00,0.2152
9666.00,0.2152
9665.00,0.2153
9664.00,0.2153
9663.00,0.2154
9662.00,0.2155
9661.00,0.2155
9660.00,0.2155
9659.00,0.2153
9658.00,0.2151
9657.00,0.2150
9656.00,0.2150
9655.00,0.2150
9654.00,0.2149
9653.00,0.2148
9652.00,0.2146
9651.00,0.2145
9650.00,0.2147
9649.00,0.2149
9648.00,0.2152
9647.00,0.2154
9646.00,0.2153
9645.00,0.2152
9644.00,0.2151
9643.00,0.2150
9642.00,0.2151
9641.00,0.2151
9640.00,0.2151
9639.00,0.2150
9638.00,0.2148
9637.00,0.2146
9636.00,0.2145
9635.00,0.2144
9634.00,0.2144
9633.00,0.2144
9632.00,0.2145
9631.00,0.2146
9630.00,0.2147
9629.00,0.2147
9628.00,0.2148
9627.00,0.2148
9626.00,0.2149
9625.00,0.2150
9624.00,0.2150
9623.00,0.2151
9622.00,0.2151
9621.00,0.2151
9620.00,0.2152
9619.00,0.2152
9618.00,0.2152
9617.00,0.2151
9616.00,0.2150
9615.00,0.2149
9614.00,0.2150
9613.00,0.2150
9612.00,0.2151
9611.00,0.2150
9610.00,0.2148
9609.00,0.2146
9608.00,0.2145
9607.00,0.2146
9606.00,0.2147
9605.00,0.2147
9604.00,0.2147
9603.00,0.2146
9602.00,0.2146
9601.00,0.2146
9600.00,0.2146
9599.00,0.2146
9598.00,0.2147
9597.00,0.2147
9596.00,0.2146
9595.00,0.2146
9594.00,0.2145
9593.00,0.2145
9592.00,0.2145
9591.00,0.2146
9590.00,0.2147
9589.00,0.2147
9588.00,0.2146
9587.00,0.2144
9586.00,0.2143
9585.00,0.2142
9584.00,0.2142
9583.00,0.2143
9582.00,0.2144
9581.00,0.2144
9580.00,0.2144
9579.00,0.2144
9578.00,0.2143
9577.00,0.2142
9576.00,0.2142
9575.00,0.2143
9574.00,0.2144
9573.00,0.2144
9572.00,0.2143
9571.00,0.2142
9570.00,0.2142
9569.00,0.2142
9568.00,0.2143
9567.00,0.2145
9566.00,0.2146
9565.00,0.2146
9564.00,0.2146
9563.00,0.2146
9562.00,0.2147
9561.00,0.2147
9560.00,0.2146
9559.00,0.2145
9558.00,0.2143
9557.00,0.2142
9556.00,0.2142
9555.00,0.2143
9554.00,0.2144
9553.00,0.2144
9552.00,0.2143
9551.00,0.2143
9550.00,0.2143
9549.00,0.2144
9548.00,0.2145
9547.00,0.2146
9546.00,0.2147
9545.00,0.2147
9544.00,0.2146
9543.00,0.2146
9542.00,0.2147
9541.00,0.2147
9540.00,0.2147
9539.00,0.2146
9538.00,0.2145
9537.00,0.2145
9536.00,0.2145
9535.00,0.2144
9534.00,0.2143
9533.00,0.2141
9532.00,0.2140
9531.00,0.2140
9530.00,0.2141
9529.00,0.2141
9528.00,0.2140
9527.00,0.2139
9526.00,0.2138
9525.00,0.2138
9524.00,0.2139
9523.00,0.2140
9522.00,0.2139
9521.00,0.2138
9520.00,0.2137
9519.00,0.2136
9518.00,0.2136
9517.00,0.2137
9516.00,0.2138
9515.00,0.2138
9514.00,0.2138
9513.00,0.2138
9512.00,0.2138
9511.00,0.2139
9510.00,0.2140
9509.00,0.2141
9508.00,0.2141
9507.00,0.2141
9506.00,0.2141
9505.00,0.2141
9504.00,0.2141
9503.00,0.2141
9502.00,0.2142
9501.00,0.2142
9500.00,0.2141
9499.00,0.2140
9498.00,0.2139
9497.00,0.2139
9496.00,0.2140
9495.00,0.2140
9494.00,0.2140
9493.00,0.2140
9492.00,0.2138
9491.00,0.2137
9490.00,0.2137
9489.00,0.2137
9488.00,0.2138
9487.00,0.2139
9486.00,0.2138
9485.00,0.2138
9484.00,0.2138
9483.00,0.2138
9482.00,0.2138
9481.00,0.2138
9480.00,0.2136
9479.00,0.2135
9478.00,0.2134
9477.00,0.2134
9476.00,0.2134
9475.00,0.2133
9474.00,0.2132
9473.00,0.2131
9472.00,0.2131
9471.00,0.2132
9470.00,0.2134
9469.00,0.2135
9468.00,0.2135
9467.00,0.2135
9466.00,0.2135
9465.00,0.2136
9464.00,0.2138
9463.00,0.2138
9462.00,0.2138
9461.00,0.2138
9460.00,0.2138
9459.00,0.2138
9458.00,0.2139
9457.00,0.2138
9456.00,0.2138
9455.00,0.2137
9454.00,0.2136
9453.00,0.2135
9452.00,0.2134
9451.00,0.2133
9450.00,0.2132
9449.00,0.2132
9448.00,0.2132
9447.00,0.2131
9446.00,0.2130
9445.00,0.2129
9444.00,0.2129
9443.00,0.2129
9442.00,0.2130
9441.00,0.2130
9440.00,0.2130
9439.00,0.2130
9438.00,0.2130
9437.00,0.2130
9436.00,0.2131
9435.00,0.2131
9434.00,0.2131
9433.00,0.2131
9432.00,0.2131
9431.00,0.2132
9430.00,0.2133
9429.00,0.2134
9428.00,0.2134
9427.00,0.2134
9426.00,0.2134
9425.00,0.2133
9424.00,0.2133
9423.00,0.2133
9422.00,0.2132
9421.00,0.2132
9420.00,0.2132
9419.00,0.2132
9418.00,0.2132
9417.00,0.2132
9416.00,0.2132
9415.00,0.2133
9414.00,0.2134
9413.00,0.2134
9412.00,0.2134
9411.00,0.2134
9410.00,0.2133
9409.00,0.2132
9408.00,0.2131
9407.00,0.2129
9406.00,0.2127
9405.00,0.2126
9404.00,0.2125
9403.00,0.2125
9402.00,0.2125
9401.00,0.2125
9400.00,0.2125
9399.00,0.2126
9398.00,0.2126
9397.00,0.2126
9396.00,0.2126
9395.00,0.2125
9394.00,0.2125
9393.00,0.2126
9392.00,0.2126
9391.00,0.2127
9390.00,0.2126
9389.00,0.2125
9388.00,0.2124
9387.00,0.2125
9386.00,0.2127
9385.00,0.2129
9384.00,0.2131
9383.00,0.2131
9382.00,0.2130
9381.00,0.2128
9380.00,0.2128
9379.00,0.2128
9378.00,0.2128
9377.00,0.2128
9376.00,0.2127
9375.00,0.2127
9374.00,0.2126
9373.00,0.2126
9372.00,0.2126
9371.00,0.2126
9370.00,0.2127
9369.00,0.2128
9368.00,0.2130
9367.00,0.2131
9366.00,0.2130
9365.00,0.2129
9364.00,0.2128
9363.00,0.2128
9362.00,0.2128
9361.00,0.2128
9360.00,0.2128
9359.00,0.2127
9358.00,0.2126
9357.00,0.2126
9356.00,0.2127
9355.00,0.2128
9354.00,0.2129
9353.00,0.2129
9352.00,0.2129
9351.00,0.2128
9350.00,0.2128
9349.00,0.2127
9348.00,0.2127
9347.00,0.2126
9346.00,0.2125
9345.00,0.2124
9344.00,0.2123
9343.00,0.2123
9342.00,0.2124
9341.00,0.2125
9340.00,0.2127
9339.00,0.2128
9338.00,0.2129
9337.00,0.2129
9336.00,0.2129
9335.00,0.2129
9334.00,0.2128
9333.00,0.2128
9332.00,0.2127
9331.00,0.2126
9330.00,0.2124
9329.00,0.2122
9328.00,0.2121
9327.00,0.2120
9326.00,0.2120
9325.00,0.2121
9324.00,0.2122
9323.00,0.2123
9322.00,0.2123
9321.00,0.2123
9320.00,0.2123
9319.00,0.2123
9318.00,0.2124
9317.00,0.2125
9316.00,0.2125
9315.00,0.2126
9314.00,0.2126
9313.00,0.2126
9312.00,0.2126
9311.00,0.2126
9310.00,0.2126
9309.00,0.2127
9308.00,0.2127
9307.00,0.2126
9306.00,0.2125
9305.00,0.2123
9304.00,0.2121
9303.00,0.2120
9302.00,0.2119
9301.00,0.2119
9300.00,0.2120
9299.00,0.2120
9298.00,0.2120
9297.00,0.2120
9296.00,0.2120
9295.00,0.2120
9294.00,0.2121
9293.00,0.2122
9292.00,0.2123
9291.00,0.2123
9290.00,0.2123
9289.00,0.2122
9288.00,0.2122
9287.00,0.2121
9286.00,0.2122
9285.00,0.2122
9284.00,0.2123
9283.00,0.2122
9282.00,0.2122
9281.00,0.2122
9280.00,0.2122
9279.00,0.2122
9278.00,0.2121
9277.00,0.2121
9276.00,0.2120
9275.00,0.2120
9274.00,0.2121
9273.00,0.2121
9272.00,0.2121
9271.00,0.2120
9270.00,0.2121
9269.00,0.2122
9268.00,0.2123
9267.00,0.2124
9266.00,0.2124
9265.00,0.2123
9264.00,0.2121
9263.00,0.2120
9262.00,0.2120
9261.00,0.2118
9260.00,0.2117
9259.00,0.2116
9258.00,0.2116
9257.00,0.2116
9256.00,0.2117
9255.00,0.2118
9254.00,0.2120
9253.00,0.2120
9252.00,0.2120
9251.00,0.2120
9250.00,0.2120
9249.00,0.2120
9248.00,0.2120
9247.00,0.2121
9246.00,0.2122
9245.00,0.2122
9244.00,0.2122
9243.00,0.2122
9242.00,0.2121
9241.00,0.2121
9240.00,0.2121
9239.00,0.2121
9238.00,0.2120
9237.00,0.2119
9236.00,0.2118
9235.00,0.2117
9234.00,0.2115
9233.00,0.2115
9232.00,0.2115
9231.00,0.2116
9230.00,0.2117
9229.00,0.2118
9228.00,0.2118
9227.00,0.2118
9226.00,0.2118
9225.00,0.2118
9224.00,0.2118
9223.00,0.2118
9222.00,0.2119
9221.00,0.2120
9220.00,0.2120
9219.00,0.2120
9218.00,0.2119
9217.00,0.2118
9216.00,0.2117
9215.00,0.2116
9214.00,0.2117
9213.00,0.2117
9212.00,0.2117
9211.00,0.2117
9210.00,0.2116
9209.00,0.2116
9208.00,0.2117
9207.00,0.2117
9206.00,0.2117
9205.00,0.2117
9204.00,0.2117
9203.00,0.2117
9202.00,0.2116
9201.00,0.2117
9200.00,0.2117
9199.00,0.2118
9198.00,0.2119
9197.00,0.2119
9196.00,0.2119
9195.00,0.2118
9194.00,0.2117
9193.00,0.2117
9192.00,0.2116
9191.00,0.2116
9190.00,0.2115
9189.00,0.2113
9188.00,0.2112
9187.00,0.2112
9186.00,0.2112
9185.00,0.2112
9184.00,0.2113
9183.00,0.2113
9182.00,0.2113
9181.00,0.2114
9180.00,0.2114
9179.00,0.2114
9178.00,0.2114
9177.00,0.2114
9176.00,0.2114
9175.00,0.2115
9174.00,0.2116
9173.00,0.2116
9172.00,0.2116
9171.00,0.2115
9170.00,0.2115
9169.00,0.2115
9168.00,0.2116
9167.00,0.2116
9166.00,0.2115
9165.00,0.2115
9164.00,0.2114
9163.00,0.2114
9162.00,0.2113
9161.00,0.2112
9160.00,0.2110
9159.00,0.2110
9158.00,0.2111
9157.00,0.2113
9156.00,0.2114
9155.00,0.2115
9154.00,0.2114
9153.00,0.2113
9152.00,0.2113
9151.00,0.2113
9150.00,0.2113
9149.00,0.2113
9148.00,0.2113
9147.00,0.2111
9146.00,0.2111
9145.00,0.2111
9144.00,0.2111
9143.00,0.2113
9142.00,0.2114
9141.00,0.2115
9140.00,0.2116
9139.00,0.2116
9138.00,0.2116
9137.00,0.2115
9136.00,0.2114
9135.00,0.2114
9134.00,0.2114
9133.00,0.2114
9132.00,0.2115
9131.00,0.2114
9130.00,0.2113
9129.00,0.2112
9128.00,0.2112
9127.00,0.2112
9126.00,0.2112
9125.00,0.2111
9124.00,0.2111
9123.00,0.2110
9122.00,0.2109
9121.00,0.2108
9120.00,0.2108
9119.00,0.2109
9118.00,0.2110
9117.00,0.2111
9116.00,0.2112
9115.00,0.2111
9114.00,0.2110
9113.00,0.2110
9112.00,0.2110
9111.00,0.2111
9110.00,0.2111
9109.00,0.2111
9108.00,0.2110
9107.00,0.2110
9106.00,0.2111
9105.00,0.2111
9104.00,0.2111
9103.00,0.2111
9102.00,0.2111
9101.00,0.2111
9100.00,0.2111
9099.00,0.2112
9098.00,0.2112
9097.00,0.2112
9096.00,0.2112
9095.00,0.2111
9094.00,0.2111
9093.00,0.2112
9092.00,0.2112
9091.00,0.2113
9090.00,0.2112
9089.00,0.2111
9088.00,0.2110
9087.00,0.2110
9086.00,0.2110
9085.00,0.2110
9084.00,0.2110
9083.00,0.2110
9082.00,0.2109
9081.00,0.2108
9080.00,0.2108
9079.00,0.2108
9078.00,0.2108
9077.00,0.2108
9076.00,0.2107
9075.00,0.2106
9074.00,0.2106
9073.00,0.2106
9072.00,0.2105
9071.00,0.2105
9070.00,0.2105
9069.00,0.2105
9068.00,0.2106
9067.00,0.2106
9066.00,0.2107
9065.00,0.2107
9064.00,0.2107
9063.00,0.2107
9062.00,0.2108
9061.00,0.2109
9060.00,0.2110
9059.00,0.2110
9058.00,0.2110
9057.00,0.2110
9056.00,0.2111
9055.00,0.2111
9054.00,0.2111
9053.00,0.2110
9052.00,0.2109
9051.00,0.2109
9050.00,0.2109
9049.00,0.2109
9048.00,0.2108
9047.00,0.2107
9046.00,0.2107
9045.00,0.2108
9044.00,0.2109
9043.00,0.2110
9042.00,0.2110
9041.00,0.2109
9040.00,0.2108
9039.00,0.2107
9038.00,0.2108
9037.00,0.2109
9036.00,0.2109
9035.00,0.2108
9034.00,0.2106
9033.00,0.2105
9032.00,0.2104
9031.00,0.2104
9030.00,0.2104
9029.00,0.2104
9028.00,0.2104
9027.00,0.2105
9026.00,0.2105
9025.00,0.2106
9024.00,0.2106
9023.00,0.2106
9022.00,0.2105
9021.00,0.2106
9020.00,0.2106
9019.00,0.2106
9018.00,0.2105
9017.00,0.2105
9016.00,0.2105
9015.00,0.2106
9014.00,0.2107
9013.00,0.2107
9012.00,0.2106
9011.00,0.2105
9010.00,0.2104
9009.00,0.2103
9008.00,0.2102
9007.00,0.2101
9006.00,0.2101
9005.00,0.2101
9004.00,0.2102
9003.00,0.2104
9002.00,0.2106
9001.00,0.2106
9000.00,0.2107
8999.00,0.2107
8998.00,0.2107
8997.00,0.2107
8996.00,0.2106
8995.00,0.2105
8994.00,0.2103
8993.00,0.2103
8992.00,0.2103
8991.00,0.2105
8990.00,0.2106
8989.00,0.2108
8988.00,0.2108
8987.00,0.2108
8986.00,0.2109
8985.00,0.2109
8984.00,0.2110
8983.00,0.2109
8982.00,0.2108
8981.00,0.2106
8980.00,0.2104
8979.00,0.2104
8978.00,0.2104
8977.00,0.2105
8976.00,0.2105
8975.00,0.2105
8974.00,0.2105
8973.00,0.2106
8972.00,0.2106
8971.00,0.2106
8970.00,0.2106
8969.00,0.2106
8968.00,0.2105
8967.00,0.2104
8966.00,0.2103
8965.00,0.2103
8964.00,0.2103
8963.00,0.2103
8962.00,0.2103
8961.00,0.2103
8960.00,0.2103
8959.00,0.2103
8958.00,0.2104
8957.00,0.2104
8956.00,0.2105
8955.00,0.2105
8954.00,0.2106
8953.00,0.2105
8952.00,0.2104
8951.00,0.2104
8950.00,0.2103
8949.00,0.2103
8948.00,0.2103
8947.00,0.2102
8946.00,0.2102
8945.00,0.2102
8944.00,0.2103
8943.00,0.2104
8942.00,0.2105
8941.00,0.2106
8940.00,0.2107
8939.00,0.2108
8938.00,0.2108
8937.00,0.2108
8936.00,0.2107
8935.00,0.2106
8934.00,0.2106
8933.00,0.2105
8932.00,0.2105
8931.00,0.2105
8930.00,0.2104
8929.00,0.2104
8928.00,0.2104
8927.00,0.2104
8926.00,0.2104
8925.00,0.2104
8924.00,0.2104
8923.00,0.2104
8922.00,0.2105
8921.00,0.2106
8920.00,0.2106
8919.00,0.2106
8918.00,0.2105
8917.00,0.2104
8916.00,0.2104
8915.00,0.2104
8914.00,0.2104
8913.00,0.2105
8912.00,0.2105
8911.00,0.2105
8910.00,0.2105
8909.00,0.2105
8908.00,0.2105
8907.00,0.2107
8906.00,0.2108
8905.00,0.2108
8904.00,0.2107
8903.00,0.2106
8902.00,0.2105
8901.00,0.2106
8900.00,0.2107
8899.00,0.2107
8898.00,0.2107
8897.00,0.2107
8896.00,0.2106
8895.00,0.2106
8894.00,0.2106
8893.00,0.2107
8892.00,0.2108
8891.00,0.2109
8890.00,0.2110
8889.00,0.2110
8888.00,0.2110
8887.00,0.2110
8886.00,0.2110
8885.00,0.2110
8884.00,0.2110
8883.00,0.2109
8882.00,0.2108
8881.00,0.2106
8880.00,0.2105
8879.00,0.2104
8878.00,0.2105
8877.00,0.2105
8876.00,0.2105
8875.00,0.2106
8874.00,0.2106
8873.00,0.2106
8872.00,0.2106
8871.00,0.2107
8870.00,0.2108
8869.00,0.2109
8868.00,0.2110
8867.00,0.2110
8866.00,0.2110
8865.00,0.2111
8864.00,0.2111
8863.00,0.2111
8862.00,0.2111
8861.00,0.2111
8860.00,0.2110
8859.00,0.2110
8858.00,0.2110
8857.00,0.2110
8856.00,0.2110
8855.00,0.2110
8854.00,0.2111
8853.00,0.2112
8852.00,0.2113
8851.00,0.2114
8850.00,0.2114
8849.00,0.2115
8848.00,0.2115
8847.00,0.2114
8846.00,0.2114
8845.00,0.2113
8844.00,0.2111
8843.00,0.2110
8842.00,0.2110
8841.00,0.2111
8840.00,0.2112
8839.00,0.2113
8838.00,0.2114
8837.00,0.2115
8836.00,0.2116
8835.00,0.2116
8834.00,0.2116
8833.00,0.2117
8832.00,0.2117
8831.00,0.2118
8830.00,0.2118
8829.00,0.2117
8828.00,0.2117
8827.00,0.2117
8826.00,0.2118
8825.00,0.2120
8824.00,0.2121
8823.00,0.2121
8822.00,0.2121
8821.00,0.2120
8820.00,0.2121
8819.00,0.2122
8818.00,0.2123
8817.00,0.2124
8816.00,0.2124
8815.00,0.2124
8814.00,0.2124
8813.00,0.2123
8812.00,0.2123
8811.00,0.2122
8810.00,0.2122
8809.00,0.2123
8808.00,0.2123
8807.00,0.2123
8806.00,0.2123
8805.00,0.2124
8804.00,0.2125
8803.00,0.2126
8802.00,0.2127
8801.00,0.2127
8800.00,0.2127
8799.00,0.2127
8798.00,0.2126
8797.00,0.2126
8796.00,0.2126
8795.00,0.2126
8794.00,0.2126
8793.00,0.2126
8792.00,0.2126
8791.00,0.2126
8790.00,0.2126
8789.00,0.2126
8788.00,0.2126
8787.00,0.2126
8786.00,0.2126
8785.00,0.2126
8784.00,0.2126
8783.00,0.2126
8782.00,0.2126
8781.00,0.2127
8780.00,0.2127
8779.00,0.2128
8778.00,0.2128
8777.00,0.2129
8776.00,0.2131
8775.00,0.2132
8774.00,0.2133
8773.00,0.2135
8772.00,0.2137
8771.00,0.2138
8770.00,0.2140
8769.00,0.2140
8768.00,0.2140
8767.00,0.2140
8766.00,0.2140
8765.00,0.2139
8764.00,0.2138
8763.00,0.2137
8762.00,0.2137
8761.00,0.2136
8760.00,0.2137
8759.00,0.2137
8758.00,0.2138
8757.00,0.2139
8756.00,0.2141
8755.00,0.2141
8754.00,0.2142
8753.00,0.2143
8752.00,0.2145
8751.00,0.2146
8750.00,0.2147
8749.00,0.2148
8748.00,0.2148
8747.00,0.2149
8746.00,0.2150
8745.00,0.2151
8744.00,0.2152
8743.00,0.2152
8742.00,0.2150
8741.00,0.2149
8740.00,0.2148
8739.00,0.2149
8738.00,0.2149
8737.00,0.2148
8736.00,0.2147
8735.00,0.2146
8734.00,0.2146
8733.00,0.2147
8732.00,0.2148
8731.00,0.2148
8730.00,0.2148
8729.00,0.2149
8728.00,0.2151
8727.00,0.2153
8726.00,0.2155
8725.00,0.2156
8724.00,0.2157
8723.00,0.2157
8722.00,0.2158
8721.00,0.2159
8720.00,0.2160
8719.00,0.2160
8718.00,0.2159
8717.00,0.2160
8716.00,0.2160
8715.00,0.2161
8714.00,0.2161
8713.00,0.2161
8712.00,0.2160
8711.00,0.2160
8710.00,0.2161
8709.00,0.2162
8708.00,0.2163
8707.00,0.2163
8706.00,0.2163
8705.00,0.2164
8704.00,0.2166
8703.00,0.2169
8702.00,0.2170
8701.00,0.2170
8700.00,0.2169
8699.00,0.2169
8698.00,0.2170
8697.00,0.2171
8696.00,0.2171
8695.00,0.2171
8694.00,0.2171
8693.00,0.2171
8692.00,0.2172
8691.00,0.2173
8690.00,0.2173
8689.00,0.2172
8688.00,0.2171
8687.00,0.2171
8686.00,0.2171
8685.00,0.2172
8684.00,0.2173
8683.00,0.2174
8682.00,0.2176
8681.00,0.2177
8680.00,0.2179
8679.00,0.2180
8678.00,0.2181
8677.00,0.2181
8676.00,0.2182
8675.00,0.2183
8674.00,0.2184
8673.00,0.2184
8672.00,0.2183
8671.00,0.2182
8670.00,0.2181
8669.00,0.2182
8668.00,0.2183
8667.00,0.2184
8666.00,0.2184
8665.00,0.2185
8664.00,0.2186
8663.00,0.2188
8662.00,0.2190
8661.00,0.2192
8660.00,0.2193
8659.00,0.2193
8658.00,0.2193
8657.00,0.2193
8656.00,0.2193
8655.00,0.2194
8654.00,0.2194
8653.00,0.2195
8652.00,0.2196
8651.00,0.2198
8650.00,0.2199
8649.00,0.2200
8648.00,0.2201
8647.00,0.2202
8646.00,0.2203
8645.00,0.2203
8644.00,0.2203
8643.00,0.2203
8642.00,0.2203
8641.00,0.2205
8640.00,0.2206
8639.00,0.2207
8638.00,0.2208
8637.00,0.2209
8636.00,0.2210
8635.00,0.2212
8634.00,0.2213
8633.00,0.2214
8632.00,0.2214
8631.00,0.2213
8630.00,0.2213
8629.00,0.2213
8628.00,0.2214
8627.00,0.2215
8626.00,0.2216
8625.00,0.2217
8624.00,0.2218
8623.00,0.2219
8622.00,0.2220
8621.00,0.2221
8620.00,0.2222
8619.00,0.2222
8618.00,0.2222
8617.00,0.2221
8616.00,0.2220
8615.00,0.2220
8614.00,0.2219
8613.00,0.2219
8612.00,0.2220
8611.00,0.2221
8610.00,0.2222
8609.00,0.2223
8608.00,0.2224
8607.00,0.2225
8606.00,0.2226
8605.00,0.2227
8604.00,0.2228
8603.00,0.2229
8602.00,0.2230
8601.00,0.2231
8600.00,0.2232
8599.00,0.2234
8598.00,0.2236
8597.00,0.2237
8596.00,0.2238
8595.00,0.2238
8594.00,0.2238
8593.00,0.2237
8592.00,0.2237
8591.00,0.2237
8590.00,0.2236
8589.00,0.2236
8588.00,0.2236
8587.00,0.2237
8586.00,0.2238
8585.00,0.2239
8584.00,0.2239
8583.00,0.2240
8582.00,0.2241
8581.00,0.2241
8580.00,0.2241
8579.00,0.2241
8578.00,0.2241
8577.00,0.2242
8576.00,0.2243
8575.00,0.2244
8574.00,0.2244
8573.00,0.2244
8572.00,0.2245
8571.00,0.2246
8570.00,0.2247
8569.00,0.2247
8568.00,0.2248
8567.00,0.2249
8566.00,0.2249
8565.00,0.2250
8564.00,0.2251
8563.00,0.2252
8562.00,0.2253
8561.00,0.2254
8560.00,0.2255
8559.00,0.2257
8558.00,0.2258
8557.00,0.2258
8556.00,0.2258
8555.00,0.2258
8554.00,0.2258
8553.00,0.2258
8552.00,0.2258
8551.00,0.2259
8550.00,0.2259
8549.00,0.2259
8548.00,0.2260
8547.00,0.2262
8546.00,0.2263
8545.00,0.2265
8544.00,0.2266
8543.00,0.2267
8542.00,0.2267
8541.00,0.2267
8540.00,0.2266
8539.00,0.2266
8538.00,0.2266
8537.00,0.2266
8536.00,0.2267
8535.00,0.2267
8534.00,0.2268
8533.00,0.2268
8532.00,0.2270
8531.00,0.2271
8530.00,0.2272
8529.00,0.2273
8528.00,0.2273
8527.00,0.2273
8526.00,0.2273
8525.00,0.2274
8524.00,0.2274
8523.00,0.2274
8522.00,0.2274
8521.00,0.2274
8520.00,0.2275
8519.00,0.2276
8518.00,0.2276
8517.00,0.2276
8516.00,0.2276
8515.00,0.2277
8514.00,0.2277
8513.00,0.2278
8512.00,0.2279
8511.00,0.2280
8510.00,0.2280
8509.00,0.2281
8508.00,0.2282
8507.00,0.2283
8506.00,0.2284
8505.00,0.2285
8504.00,0.2285
8503.00,0.2286
8502.00,0.2286
8501.00,0.2286
8500.00,0.2286
8499.00,0.2287
8498.00,0.2287
8497.00,0.2287
8496.00,0.2287
8495.00,0.2287
8494.00,0.2288
8493.00,0.2288
8492.00,0.2289
8491.00,0.2290
8490.00,0.2291
8489.00,0.2291
8488.00,0.2291
8487.00,0.2291
8486.00,0.2292
8485.00,0.2293
8484.00,0.2294
8483.00,0.2294
8482.00,0.2294
8481.00,0.2295
8480.00,0.2296
8479.00,0.2297
8478.00,0.2298
8477.00,0.2298
8476.00,0.2298
8475.00,0.2298
8474.00,0.2298
8473.00,0.2298
8472.00,0.2299
8471.00,0.2300
8470.00,0.2300
8469.00,0.2301
8468.00,0.2301
8467.00,0.2302
8466.00,0.2302
8465.00,0.2303
8464.00,0.2303
8463.00,0.2303
8462.00,0.2303
8461.00,0.2304
8460.00,0.2304
8459.00,0.2305
8458.00,0.2306
8457.00,0.2306
8456.00,0.2307
8455.00,0.2308
8454.00,0.2309
8453.00,0.2310
8452.00,0.2310
8451.00,0.2310
8450.00,0.2310
8449.00,0.2310
8448.00,0.2312
8447.00,0.2313
8446.00,0.2313
8445.00,0.2314
8444.00,0.2314
8443.00,0.2314
8442.00,0.2314
8441.00,0.2314
8440.00,0.2314
8439.00,0.2315
8438.00,0.2316
8437.00,0.2316
8436.00,0.2316
8435.00,0.2316
8434.00,0.2317
8433.00,0.2318
8432.00,0.2319
8431.00,0.2319
8430.00,0.2319
8429.00,0.2318
8428.00,0.2318
8427.00,0.2319
8426.00,0.2319
8425.00,0.2321
8424.00,0.2322
8423.00,0.2322
8422.00,0.2323
8421.00,0.2322
8420.00,0.2322
8419.00,0.2323
8418.00,0.2323
8417.00,0.2323
8416.00,0.2323
8415.00,0.2323
8414.00,0.2323
8413.00,0.2324
8412.00,0.2324
8411.00,0.2325
8410.00,0.2325
8409.00,0.2325
8408.00,0.2325
8407.00,0.2325
8406.00,0.2325
8405.00,0.2326
8404.00,0.2326
8403.00,0.2327
8402.00,0.2327
8401.00,0.2327
8400.00,0.2327
8399.00,0.2327
8398.00,0.2328
8397.00,0.2328
8396.00,0.2328
8395.00,0.2328
8394.00,0.2329
8393.00,0.2330
8392.00,0.2330
8391.00,0.2331
8390.00,0.2331
8389.00,0.2331
8388.00,0.2331
8387.00,0.2332
8386.00,0.2332
8385.00,0.2331
8384.00,0.2331
8383.00,0.2331
8382.00,0.2331
8381.00,0.2331
8380.00,0.2331
8379.00,0.2331
8378.00,0.2331
8377.00,0.2331
8376.00,0.2331
8375.00,0.2331
8374.00,0.2331
8373.00,0.2331
8372.00,0.2331
8371.00,0.2331
8370.00,0.2331
8369.00,0.2331
8368.00,0.2330
8367.00,0.2329
8366.00,0.2329
8365.00,0.2328
8364.00,0.2329
8363.00,0.2329
8362.00,0.2330
8361.00,0.2330
8360.00,0.2330
8359.00,0.2330
8358.00,0.2330
8357.00,0.2330
8356.00,0.2331
8355.00,0.2332
8354.00,0.2332
8353.00,0.2332
8352.00,0.2333
8351.00,0.2333
8350.00,0.2334
8349.00,0.2334
8348.00,0.2334
8347.00,0.2334
8346.00,0.2334
8345.00,0.2334
8344.00,0.2334
8343.00,0.2334
8342.00,0.2334
8341.00,0.2335
8340.00,0.2335
8339.00,0.2335
8338.00,0.2335
8337.00,0.2334
8336.00,0.2333
8335.00,0.2332
8334.00,0.2332
8333.00,0.2332
8332.00,0.2332
8331.00,0.2333
8330.00,0.2334
8329.00,0.2334
8328.00,0.2334
8327.00,0.2334
8326.00,0.2334
8325.00,0.2333
8324.00,0.2332
8323.00,0.2331
8322.00,0.2330
8321.00,0.2329
8320.00,0.2329
8319.00,0.2330
8318.00,0.2331
8317.00,0.2331
8316.00,0.2332
8315.00,0.2332
8314.00,0.2333
8313.00,0.2333
8312.00,0.2334
8311.00,0.2334
8310.00,0.2334
8309.00,0.2333
8308.00,0.2333
8307.00,0.2333
8306.00,0.2333
8305.00,0.2333
8304.00,0.2333
8303.00,0.2333
8302.00,0.2333
8301.00,0.2333
8300.00,0.2333
8299.00,0.2332
8298.00,0.2332
8297.00,0.2332
8296.00,0.2332
8295.00,0.2332
8294.00,0.2332
8293.00,0.2332
8292.00,0.2331
8291.00,0.2331
8290.00,0.2331
8289.00,0.2330
8288.00,0.2329
8287.00,0.2328
8286.00,0.2327
8285.00,0.2327
8284.00,0.2327
8283.00,0.2328
8282.00,0.2328
8281.00,0.2328
8280.00,0.2328
8279.00,0.2329
8278.00,0.2329
8277.00,0.2329
8276.00,0.2328
8275.00,0.2327
8274.00,0.2327
8273.00,0.2327
8272.00,0.2327
8271.00,0.2327
8270.00,0.2327
8269.00,0.2327
8268.00,0.2327
8267.00,0.2328
8266.00,0.2328
8265.00,0.2328
8264.00,0.2328
8263.00,0.2327
8262.00,0.2327
8261.00,0.2327
8260.00,0.2328
8259.00,0.2328
8258.00,0.2328
8257.00,0.2327
8256.00,0.2327
8255.00,0.2326
8254.00,0.2326
8253.00,0.2325
8252.00,0.2325
8251.00,0.2324
8250.00,0.2323
8249.00,0.2322
8248.00,0.2322
8247.00,0.2322
8246.00,0.2322
8245.00,0.2322
8244.00,0.2322
8243.00,0.2321
8242.00,0.2320
8241.00,0.2320
8240.00,0.2319
8239.00,0.2319
8238.00,0.2319
8237.00,0.2319
8236.00,0.2320
8235.00,0.2320
8234.00,0.2321
8233.00,0.2320
8232.00,0.2320
8231.00,0.2320
8230.00,0.2320
8229.00,0.2320
8228.00,0.2319
8227.00,0.2318
8226.00,0.2317
8225.00,0.2317
8224.00,0.2317
8223.00,0.2317
8222.00,0.2318
8221.00,0.2318
8220.00,0.2317
8219.00,0.2317
8218.00,0.2317
8217.00,0.2317
8216.00,0.2317
8215.00,0.2317
8214.00,0.2317
8213.00,0.2316
8212.00,0.2315
8211.00,0.2313
8210.00,0.2312
8209.00,0.2311
8208.00,0.2310
8207.00,0.2310
8206.00,0.2309
8205.00,0.2309
8204.00,0.2309
8203.00,0.2310
8202.00,0.2311
8201.00,0.2311
8200.00,0.2311
8199.00,0.2312
8198.00,0.2312
8197.00,0.2312
8196.00,0.2311
8195.00,0.2310
8194.00,0.2309
8193.00,0.2309
8192.00,0.2309
8191.00,0.2309
8190.00,0.2308
8189.00,0.2308
8188.00,0.2307
8187.00,0.2308
8186.00,0.2308
8185.00,0.2308
8184.00,0.2308
8183.00,0.2308
8182.00,0.2307
8181.00,0.2307
8180.00,0.2306
8179.00,0.2305
8178.00,0.2305
8177.00,0.2304
8176.00,0.2304
8175.00,0.2304
8174.00,0.2304
8173.00,0.2304
8172.00,0.2303
8171.00,0.2302
8170.00,0.2302
8169.00,0.2301
8168.00,0.2301
8167.00,0.2300
8166.00,0.2299
8165.00,0.2299
8164.00,0.2299
8163.00,0.2299
8162.00,0.2298
8161.00,0.2298
8160.00,0.2297
8159.00,0.2296
8158.00,0.2296
8157.00,0.2295
8156.00,0.2295
8155.00,0.2295
8154.00,0.2295
8153.00,0.2296
8152.00,0.2297
8151.00,0.2297
8150.00,0.2298
8149.00,0.2297
8148.00,0.2296
8147.00,0.2295
8146.00,0.2294
8145.00,0.2293
8144.00,0.2293
8143.00,0.2292
8142.00,0.2292
8141.00,0.2291
8140.00,0.2291
8139.00,0.2291
8138.00,0.2291
8137.00,0.2291
8136.00,0.2291
8135.00,0.2291
8134.00,0.2290
8133.00,0.2290
8132.00,0.2289
8131.00,0.2288
8130.00,0.2288
8129.00,0.2289
8128.00,0.2289
8127.00,0.2289
8126.00,0.2289
8125.00,0.2289
8124.00,0.2289
8123.00,0.2289
8122.00,0.2289
8121.00,0.2288
8120.00,0.2288
8119.00,0.2287
8118.00,0.2287
8117.00,0.2287
8116.00,0.2286
8115.00,0.2286
8114.00,0.2285
8113.00,0.2284
8112.00,0.2284
8111.00,0.2284
8110.00,0.2283
8109.00,0.2283
8108.00,0.2282
8107.00,0.2282
8106.00,0.2282
8105.00,0.2281
8104.00,0.2281
8103.00,0.2280
8102.00,0.2279
8101.00,0.2279
8100.00,0.2279
8099.00,0.2279
8098.00,0.2279
8097.00,0.2279
8096.00,0.2279
8095.00,0.2279
8094.00,0.2280
8093.00,0.2280
8092.00,0.2279
8091.00,0.2278
8090.00,0.2278
8089.00,0.2277
8088.00,0.2276
8087.00,0.2275
8086.00,0.2274
8085.00,0.2274
8084.00,0.2273
8083.00,0.2273
8082.00,0.2272
8081.00,0.2271
8080.00,0.2272
8079.00,0.2272
8078.00,0.2272
8077.00,0.2272
8076.00,0.2271
8075.00,0.2271
8074.00,0.2271
8073.00,0.2271
8072.00,0.2270
8071.00,0.2270
8070.00,0.2269
8069.00,0.2269
8068.00,0.2269
8067.00,0.2269
8066.00,0.2269
8065.00,0.2269
8064.00,0.2268
8063.00,0.2268
8062.00,0.2268
8061.00,0.2269
8060.00,0.2269
8059.00,0.2269
8058.00,0.2268
8057.00,0.2267
8056.00,0.2266
8055.00,0.2266
8054.00,0.2266
8053.00,0.2266
8052.00,0.2266
8051.00,0.2265
8050.00,0.2265
8049.00,0.2265
8048.00,0.2265
8047.00,0.2265
8046.00,0.2264
8045.00,0.2264
8044.00,0.2264
8043.00,0.2264
8042.00,0.2264
8041.00,0.2264
8040.00,0.2265
8039.00,0.2265
8038.00,0.2265
8037.00,0.2264
8036.00,0.2264
8035.00,0.2262
8034.00,0.2261
8033.00,0.2261
8032.00,0.2260
8031.00,0.2261
8030.00,0.2261
8029.00,0.2261
8028.00,0.2260
8027.00,0.2259
8026.00,0.2259
8025.00,0.2259
8024.00,0.2259
8023.00,0.2259
8022.00,0.2258
8021.00,0.2257
8020.00,0.2256
8019.00,0.2255
8018.00,0.2255
8017.00,0.2255
8016.00,0.2255
8015.00,0.2255
8014.00,0.2254
8013.00,0.2254
8012.00,0.2254
8011.00,0.2255
8010.00,0.2255
8009.00,0.2255
8008.00,0.2256
8007.00,0.2256
8006.00,0.2256
8005.00,0.2255
8004.00,0.2255
8003.00,0.2254
8002.00,0.2253
8001.00,0.2253
8000.00,0.2253
7999.00,0.2252
7998.00,0.2252
7997.00,0.2252
7996.00,0.2252
7995.00,0.2253
7994.00,0.2253
7993.00,0.2254
7992.00,0.2254
7991.00,0.2253
7990.00,0.2253
7989.00,0.2252
7988.00,0.2252
7987.00,0.2251
7986.00,0.2250
7985.00,0.2249
7984.00,0.2248
7983.00,0.2248
7982.00,0.2248
7981.00,0.2247
7980.00,0.2247
7979.00,0.2246
7978.00,0.2246
7977.00,0.2246
7976.00,0.2246
7975.00,0.2246
7974.00,0.2246
7973.00,0.2246
7972.00,0.2245
7971.00,0.2245
7970.00,0.2245
7969.00,0.2245
7968.00,0.2245
7967.00,0.2244
7966.00,0.2244
7965.00,0.2244
7964.00,0.2244
7963.00,0.2244
7962.00,0.2244
7961.00,0.2244
7960.00,0.2243
7959.00,0.2243
7958.00,0.2242
7957.00,0.2242
7956.00,0.2241
7955.00,0.2241
7954.00,0.2240
7953.00,0.2240
7952.00,0.2240
7951.00,0.2240
7950.00,0.2240
7949.00,0.2240
7948.00,0.2240
7947.00,0.2240
7946.00,0.2240
7945.00,0.2239
7944.00,0.2239
7943.00,0.2239
7942.00,0.2238
7941.00,0.2238
7940.00,0.2237
7939.00,0.2237
7938.00,0.2237
7937.00,0.2238
7936.00,0.2239
7935.00,0.2240
7934.00,0.2240
7933.00,0.2241
7932.00,0.2241
7931.00,0.2241
7930.00,0.2240
7929.00,0.2239
7928.00,0.2238
7927.00,0.2237
7926.00,0.2237
7925.00,0.2237
7924.00,0.2237
7923.00,0.2237
7922.00,0.2237
7921.00,0.2236
7920.00,0.2236
7919.00,0.2235
7918.00,0.2234
7917.00,0.2234
7916.00,0.2234
7915.00,0.2234
7914.00,0.2234
7913.00,0.2234
7912.00,0.2234
7911.00,0.2234
7910.00,0.2234
7909.00,0.2234
7908.00,0.2233
7907.00,0.2233
7906.00,0.2232
7905.00,0.2232
7904.00,0.2233
7903.00,0.2234
7902.00,0.2234
7901.00,0.2235
7900.00,0.2235
7899.00,0.2235
7898.00,0.2236
7897.00,0.2236
7896.00,0.2235
7895.00,0.2234
7894.00,0.2233
7893.00,0.2232
7892.00,0.2231
7891.00,0.2231
7890.00,0.2231
7889.00,0.2231
7888.00,0.2230
7887.00,0.2230
7886.00,0.2230
7885.00,0.2230
7884.00,0.2229
7883.00,0.2228
7882.00,0.2227
7881.00,0.2226
7880.00,0.2226
7879.00,0.2226
7878.00,0.2227
7877.00,0.2227
7876.00,0.2228
7875.00,0.2228
7874.00,0.2227
7873.00,0.2227
7872.00,0.2226
7871.00,0.2226
7870.00,0.2225
7869.00,0.2224
7868.00,0.2223
7867.00,0.2223
7866.00,0.2223
7865.00,0.2224
7864.00,0.2224
7863.00,0.2224
7862.00,0.2223
7861.00,0.2223
7860.00,0.2223
7859.00,0.2223
7858.00,0.2223
7857.00,0.2223
7856.00,0.2223
7855.00,0.2222
7854.00,0.2222
7853.00,0.2221
7852.00,0.2222
7851.00,0.2222
7850.00,0.2222
7849.00,0.2222
7848.00,0.2222
7847.00,0.2222
7846.00,0.2222
7845.00,0.2222
7844.00,0.2222
7843.00,0.2222
7842.00,0.2221
7841.00,0.2220
7840.00,0.2220
7839.00,0.2220
7838.00,0.2220
7837.00,0.2220
7836.00,0.2219
7835.00,0.2218
7834.00,0.2218
7833.00,0.2217
7832.00,0.2217
7831.00,0.2216
7830.00,0.2216
7829.00,0.2215
7828.00,0.2215
7827.00,0.2215
7826.00,0.2215
7825.00,0.2215
7824.00,0.2215
7823.00,0.2215
7822.00,0.2215
7821.00,0.2215
7820.00,0.2215
7819.00,0.2215
7818.00,0.2215
7817.00,0.2215
7816.00,0.2215
7815.00,0.2215
7814.00,0.2215
7813.00,0.2214
7812.00,0.2213
7811.00,0.2212
7810.00,0.2211
7809.00,0.2211
7808.00,0.2211
7807.00,0.2211
7806.00,0.2211
7805.00,0.2210
7804.00,0.2210
7803.00,0.2211
7802.00,0.2211
7801.00,0.2211
7800.00,0.2211
7799.00,0.2210
7798.00,0.2210
7797.00,0.2211
7796.00,0.2211
7795.00,0.2211
7794.00,0.2210
7793.00,0.2210
7792.00,0.2209
7791.00,0.2208
7790.00,0.2207
7789.00,0.2207
7788.00,0.2206
7787.00,0.2206
7786.00,0.2206
7785.00,0.2207
7784.00,0.2207
7783.00,0.2207
7782.00,0.2206
7781.00,0.2206
7780.00,0.2206
7779.00,0.2206
7778.00,0.2206
7777.00,0.2205
7776.00,0.2205
7775.00,0.2205
7774.00,0.2204
7773.00,0.2204
7772.00,0.2203
7771.00,0.2203
7770.00,0.2203
7769.00,0.2202
7768.00,0.2202
7767.00,0.2202
7766.00,0.2202
7765.00,0.2202
7764.00,0.2202
7763.00,0.2202
7762.00,0.2201
7761.00,0.2201
7760.00,0.2200
7759.00,0.2199
7758.00,0.2198
7757.00,0.2198
7756.00,0.2197
7755.00,0.2197
7754.00,0.2197
7753.00,0.2197
7752.00,0.2197
7751.00,0.2197
7750.00,0.2197
7749.00,0.2197
7748.00,0.2196
7747.00,0.2196
7746.00,0.2196
7745.00,0.2196
7744.00,0.2196
7743.00,0.2195
7742.00,0.2196
7741.00,0.2196
7740.00,0.2196
7739.00,0.2196
7738.00,0.2195
7737.00,0.2195
7736.00,0.2194
7735.00,0.2194
7734.00,0.2193
7733.00,0.2193
7732.00,0.2193
7731.00,0.2193
7730.00,0.2193
7729.00,0.2194
7728.00,0.2194
7727.00,0.2193
7726.00,0.2193
7725.00,0.2192
7724.00,0.2192
7723.00,0.2192
7722.00,0.2192
7721.00,0.2191
7720.00,0.2191
7719.00,0.2190
7718.00,0.2191
7717.00,0.2191
7716.00,0.2191
7715.00,0.2191
7714.00,0.2191
7713.00,0.2191
7712.00,0.2191
7711.00,0.2191
7710.00,0.2191
7709.00,0.2191
7708.00,0.2190
7707.00,0.2190
7706.00,0.2189
7705.00,0.2188
7704.00,0.2187
7703.00,0.2187
7702.00,0.2187
7701.00,0.2187
7700.00,0.2186
7699.00,0.2186
7698.00,0.2186
7697.00,0.2186
7696.00,0.2186
7695.00,0.2186
7694.00,0.2186
7693.00,0.2186
7692.00,0.2186
7691.00,0.2186
7690.00,0.2186
7689.00,0.2186
7688.00,0.2186
7687.00,0.2187
7686.00,0.2186
7685.00,0.2186
7684.00,0.2186
7683.00,0.2186
7682.00,0.2185
7681.00,0.2185
7680.00,0.2185
7679.00,0.2185
7678.00,0.2185
7677.00,0.2185
7676.00,0.2186
7675.00,0.2186
7674.00,0.2185
7673.00,0.2185
7672.00,0.2185
7671.00,0.2185
7670.00,0.2185
7669.00,0.2184
7668.00,0.2184
7667.00,0.2184
7666.00,0.2184
7665.00,0.2184
7664.00,0.2184
7663.00,0.2184
7662.00,0.2184
7661.00,0.2183
7660.00,0.2183
7659.00,0.2183
7658.00,0.2183
7657.00,0.2183
7656.00,0.2183
7655.00,0.2184
7654.00,0.2184
7653.00,0.2185
7652.00,0.2186
7651.00,0.2186
7650.00,0.2185
7649.00,0.2185
7648.00,0.2184
7647.00,0.2183
7646.00,0.2183
7645.00,0.2182
7644.00,0.2182
7643.00,0.2182
7642.00,0.2181
7641.00,0.2182
7640.00,0.2182
7639.00,0.2182
7638.00,0.2183
7637.00,0.2183
7636.00,0.2184
7635.00,0.2184
7634.00,0.2183
7633.00,0.2183
7632.00,0.2183
7631.00,0.2183
7630.00,0.2183
7629.00,0.2183
7628.00,0.2183
7627.00,0.2183
7626.00,0.2183
7625.00,0.2183
7624.00,0.2183
7623.00,0.2184
7622.00,0.2184
7621.00,0.2184
7620.00,0.2184
7619.00,0.2184
7618.00,0.2185
7617.00,0.2185
7616.00,0.2185
7615.00,0.2185
7614.00,0.2185
7613.00,0.2185
7612.00,0.2185
7611.00,0.2185
7610.00,0.2185
7609.00,0.2185
7608.00,0.2186
7607.00,0.2186
7606.00,0.2186
7605.00,0.2186
7604.00,0.2186
7603.00,0.2186
7602.00,0.2185
7601.00,0.2185
7600.00,0.2186
7599.00,0.2186
7598.00,0.2186
7597.00,0.2187
7596.00,0.2187
7595.00,0.2187
7594.00,0.2188
7593.00,0.2188
7592.00,0.2188
7591.00,0.2187
7590.00,0.2187
7589.00,0.2187
7588.00,0.2187
7587.00,0.2187
7586.00,0.2187
7585.00,0.2187
7584.00,0.2188
7583.00,0.2188
7582.00,0.2188
7581.00,0.2188
7580.00,0.2188
7579.00,0.2189
7578.00,0.2189
7577.00,0.2189
7576.00,0.2189
7575.00,0.2190
7574.00,0.2190
7573.00,0.2190
7572.00,0.2190
7571.00,0.2190
7570.00,0.2191
7569.00,0.2192
7568.00,0.2192
7567.00,0.2192
7566.00,0.2192
7565.00,0.2192
7564.00,0.2193
7563.00,0.2193
7562.00,0.2194
7561.00,0.2194
7560.00,0.2194
7559.00,0.2195
7558.00,0.2196
7557.00,0.2197
7556.00,0.2197
7555.00,0.2198
7554.00,0.2197
7553.00,0.2197
7552.00,0.2197
7551.00,0.2198
7550.00,0.2199
7549.00,0.2200
7548.00,0.2200
7547.00,0.2201
7546.00,0.2201
7545.00,0.2202
7544.00,0.2202
7543.00,0.2202
7542.00,0.2202
7541.00,0.2203
7540.00,0.2203
7539.00,0.2204
7538.00,0.2204
7537.00,0.2205
7536.00,0.2206
7535.00,0.2207
7534.00,0.2207
7533.00,0.2207
7532.00,0.2207
7531.00,0.2207
7530.00,0.2207
7529.00,0.2207
7528.00,0.2208
7527.00,0.2208
7526.00,0.2209
7525.00,0.2210
7524.00,0.2211
7523.00,0.2212
7522.00,0.2213
7521.00,0.2214
7520.00,0.2215
7519.00,0.2215
7518.00,0.2215
7517.00,0.2216
7516.00,0.2216
7515.00,0.2217
7514.00,0.2218
7513.00,0.2218
7512.00,0.2218
7511.00,0.2218
7510.00,0.2220
7509.00,0.2221
7508.00,0.2222
7507.00,0.2223
7506.00,0.2224
7505.00,0.2225
7504.00,0.2226
7503.00,0.2227
7502.00,0.2227
7501.00,0.2227
7500.00,0.2228
7499.00,0.2229
7498.00,0.2230
7497.00,0.2230
7496.00,0.2231
7495.00,0.2231
7494.00,0.2232
7493.00,0.2232
7492.00,0.2233
7491.00,0.2233
7490.00,0.2233
7489.00,0.2234
7488.00,0.2235
7487.00,0.2236
7486.00,0.2237
7485.00,0.2238
7484.00,0.2239
7483.00,0.2240
7482.00,0.2241
7481.00,0.2242
7480.00,0.2243
7479.00,0.2244
7478.00,0.2245
7477.00,0.2246
7476.00,0.2247
7475.00,0.2248
7474.00,0.2248
7473.00,0.2249
7472.00,0.2249
7471.00,0.2249
7470.00,0.2250
7469.00,0.2251
7468.00,0.2251
7467.00,0.2252
7466.00,0.2253
7465.00,0.2254
7464.00,0.2254
7463.00,0.2255
7462.00,0.2256
7461.00,0.2257
7460.00,0.2257
7459.00,0.2258
7458.00,0.2259
7457.00,0.2260
7456.00,0.2261
7455.00,0.2263
7454.00,0.2264
7453.00,0.2265
7452.00,0.2266
7451.00,0.2267
7450.00,0.2268
7449.00,0.2268
7448.00,0.2269
7447.00,0.2270
7446.00,0.2271
7445.00,0.2273
7444.00,0.2274
7443.00,0.2275
7442.00,0.2276
7441.00,0.2277
7440.00,0.2279
7439.00,0.2280
7438.00,0.2281
7437.00,0.2282
7436.00,0.2283
7435.00,0.2284
7434.00,0.2285
7433.00,0.2285
7432.00,0.2286
7431.00,0.2287
7430.00,0.2288
7429.00,0.2289
7428.00,0.2290
7427.00,0.2291
7426.00,0.2293
7425.00,0.2295
7424.00,0.2298
7423.00,0.2300
7422.00,0.2302
7421.00,0.2304
7420.00,0.2305
7419.00,0.2306
7418.00,0.2306
7417.00,0.2306
7416.00,0.2306
7415.00,0.2305
7414.00,0.2305
7413.00,0.2306
7412.00,0.2307
7411.00,0.2309
7410.00,0.2311
7409.00,0.2313
7408.00,0.2314
7407.00,0.2315
7406.00,0.2316
7405.00,0.2318
7404.00,0.2319
7403.00,0.2320
7402.00,0.2321
7401.00,0.2322
7400.00,0.2324
7399.00,0.2326
7398.00,0.2328
7397.00,0.2329
7396.00,0.2329
7395.00,0.2330
7394.00,0.2331
7393.00,0.2332
7392.00,0.2333
7391.00,0.2333
7390.00,0.2334
7389.00,0.2336
7388.00,0.2339
7387.00,0.2342
7386.00,0.2345
7385.00,0.2348
7384.00,0.2351
7383.00,0.2353
7382.00,0.2355
7381.00,0.2358
7380.00,0.2361
7379.00,0.2360
7378.00,0.2358
7377.00,0.2355
7376.00,0.2354
7375.00,0.2355
7374.00,0.2357
7373.00,0.2359
7372.00,0.2359
7371.00,0.2360
7370.00,0.2361
7369.00,0.2364
7368.00,0.2366
7367.00,0.2368
7366.00,0.2368
7365.00,0.2367
7364.00,0.2366
7363.00,0.2367
7362.00,0.2370
7361.00,0.2374
7360.00,0.2378
7359.00,0.2380
7358.00,0.2380
7357.00,0.2379
7356.00,0.2379
7355.00,0.2382
7354.00,0.2384
7353.00,0.2386
7352.00,0.2387
7351.00,0.2388
7350.00,0.2390
7349.00,0.2394
7348.00,0.2399
7347.00,0.2403
7346.00,0.2406
7345.00,0.2409
7344.00,0.2411
7343.00,0.2411
7342.00,0.2409
7341.00,0.2406
7340.00,0.2402
7339.00,0.2399
7338.00,0.2395
7337.00,0.2392
7336.00,0.2390
7335.00,0.2392
7334.00,0.2398
7333.00,0.2405
7332.00,0.2411
7331.00,0.2414
7330.00,0.2415
7329.00,0.2415
7328.00,0.2417
7327.00,0.2417
7326.00,0.2415
7325.00,0.2410
7324.00,0.2407
7323.00,0.2406
7322.00,0.2407
7321.00,0.2409
7320.00,0.2409
7319.00,0.2410
7318.00,0.2412
7317.00,0.2415
7316.00,0.2420
7315.00,0.2423
7314.00,0.2425
7313.00,0.2426
7312.00,0.2427
7311.00,0.2429
7310.00,0.2429
7309.00,0.2426
7308.00,0.2423
7307.00,0.2421
7306.00,0.2421
7305.00,0.2422
7304.00,0.2422
7303.00,0.2422
7302.00,0.2423
7301.00,0.2425
7300.00,0.2429
7299.00,0.2432
7298.00,0.2435
7297.00,0.2434
7296.00,0.2432
7295.00,0.2431
7294.00,0.2432
7293.00,0.2433
7292.00,0.2433
7291.00,0.2432
7290.00,0.2430
7289.00,0.2429
7288.00,0.2430
7287.00,0.2432
7286.00,0.2432
7285.00,0.2431
7284.00,0.2431
7283.00,0.2430
7282.00,0.2431
7281.00,0.2432
7280.00,0.2434
7279.00,0.2435
7278.00,0.2436
7277.00,0.2436
7276.00,0.2437
7275.00,0.2437
7274.00,0.2437
7273.00,0.2438
7272.00,0.2438
7271.00,0.2439
7270.00,0.2438
7269.00,0.2438
7268.00,0.2440
7267.00,0.2443
7266.00,0.2445
7265.00,0.2445
7264.00,0.2444
7263.00,0.2443
7262.00,0.2443
7261.00,0.2443
7260.00,0.2443
7259.00,0.2444
7258.00,0.2446
7257.00,0.2448
7256.00,0.2450
7255.00,0.2452
7254.00,0.2452
7253.00,0.2453
7252.00,0.2453
7251.00,0.2453
7250.00,0.2455
7249.00,0.2459
7248.00,0.2465
7247.00,0.2472
7246.00,0.2477
7245.00,0.2479
7244.00,0.2478
7243.00,0.2476
7242.00,0.2473
7241.00,0.2470
7240.00,0.2468
7239.00,0.2468
7238.00,0.2473
7237.00,0.2481
7236.00,0.2489
7235.00,0.2494
7234.00,0.2494
7233.00,0.2493
7232.00,0.2491
7231.00,0.2489
7230.00,0.2485
7229.00,0.2480
7228.00,0.2476
7227.00,0.2476
7226.00,0.2480
7225.00,0.2485
7224.00,0.2489
7223.00,0.2490
7222.00,0.2491
7221.00,0.2491
7220.00,0.2493
7219.00,0.2496
7218.00,0.2497
7217.00,0.2496
7216.00,0.2494
7215.00,0.2494
7214.00,0.2495
7213.00,0.2496
7212.00,0.2497
7211.00,0.2500
7210.00,0.2503
7209.00,0.2508
7208.00,0.2512
7207.00,0.2515
7206.00,0.2517
7205.00,0.2519
7204.00,0.2519
7203.00,0.2519
7202.00,0.2517
7201.00,0.2515
7200.00,0.2515
7199.00,0.2517
7198.00,0.2519
7197.00,0.2522
7196.00,0.2524
7195.00,0.2526
7194.00,0.2528
7193.00,0.2529
7192.00,0.2530
7191.00,0.2532
7190.00,0.2534
7189.00,0.2538
7188.00,0.2543
7187.00,0.2550
7186.00,0.2556
7185.00,0.2561
7184.00,0.2564
7183.00,0.2564
7182.00,0.2564
7181.00,0.2564
7180.00,0.2563
7179.00,0.2562
7178.00,0.2561
7177.00,0.2562
7176.00,0.2565
7175.00,0.2571
7174.00,0.2577
7173.00,0.2584
7172.00,0.2588
7171.00,0.2592
7170.00,0.2594
7169.00,0.2597
7168.00,0.2600
7167.00,0.2602
7166.00,0.2605
7165.00,0.2607
7164.00,0.2609
7163.00,0.2610
7162.00,0.2611
7161.00,0.2612
7160.00,0.2613
7159.00,0.2613
7158.00,0.2612
7157.00,0.2612
7156.00,0.2613
7155.00,0.2616
7154.00,0.2619
7153.00,0.2623
7152.00,0.2627
7151.00,0.2632
7150.00,0.2637
7149.00,0.2642
7148.00,0.2646
7147.00,0.2650
7146.00,0.2655
7145.00,0.2660
7144.00,0.2666
7143.00,0.2670
7142.00,0.2672
7141.00,0.2673
7140.00,0.2675
7139.00,0.2678
7138.00,0.2679
7137.00,0.2679
7136.00,0.2678
7135.00,0.2678
7134.00,0.2680
7133.00,0.2682
7132.00,0.2686
7131.00,0.2689
7130.00,0.2693
7129.00,0.2696
7128.00,0.2701
7127.00,0.2705
7126.00,0.2710
7125.00,0.2715
7124.00,0.2720
7123.00,0.2727
7122.00,0.2733
7121.00,0.2739
7120.00,0.2742
7119.00,0.2743
7118.00,0.2743
7117.00,0.2744
7116.00,0.2744
7115.00,0.2744
7114.00,0.2745
7113.00,0.2748
7112.00,0.2754
7111.00,0.2762
7110.00,0.2769
7109.00,0.2775
7108.00,0.2778
7107.00,0.2780
7106.00,0.2781
7105.00,0.2783
7104.00,0.2784
7103.00,0.2786
7102.00,0.2790
7101.00,0.2795
7100.00,0.2802
7099.00,0.2810
7098.00,0.2816
7097.00,0.2820
7096.00,0.2823
7095.00,0.2825
7094.00,0.2827
7093.00,0.2829
7092.00,0.2830
7091.00,0.2832
7090.00,0.2836
7089.00,0.2840
7088.00,0.2845
7087.00,0.2850
7086.00,0.2854
7085.00,0.2859
7084.00,0.2863
7083.00,0.2867
7082.00,0.2871
7081.00,0.2875
7080.00,0.2879
7079.00,0.2883
7078.00,0.2888
7077.00,0.2893
7076.00,0.2899
7075.00,0.2905
7074.00,0.2911
7073.00,0.2916
7072.00,0.2921
7071.00,0.2924
7070.00,0.2927
7069.00,0.2929
7068.00,0.2931
7067.00,0.2933
7066.00,0.2936
7065.00,0.2940
7064.00,0.2944
7063.00,0.2949
7062.00,0.2953
7061.00,0.2958
7060.00,0.2963
7059.00,0.2968
7058.00,0.2973
7057.00,0.2978
7056.00,0.2982
7055.00,0.2986
7054.00,0.2991
7053.00,0.2996
7052.00,0.3001
7051.00,0.3006
7050.00,0.3011
7049.00,0.3016
7048.00,0.3021
7047.00,0.3026
7046.00,0.3030
7045.00,0.3033
7044.00,0.3036
7043.00,0.3040
7042.00,0.3044
7041.00,0.3048
7040.00,0.3052
7039.00,0.3056
7038.00,0.3061
7037.00,0.3065
7036.00,0.3069
7035.00,0.3073
7034.00,0.3077
7033.00,0.3082
7032.00,0.3086
7031.00,0.3091
7030.00,0.3096
7029.00,0.3101
7028.00,0.3107
7027.00,0.3112
7026.00,0.3117
7025.00,0.3121
7024.00,0.3125
7023.00,0.3128
7022.00,0.3132
7021.00,0.3136
7020.00,0.3139
7019.00,0.3143
7018.00,0.3147
7017.00,0.3151
7016.00,0.3155
7015.00,0.3159
7014.00,0.3164
7013.00,0.3168
7012.00,0.3172
7011.00,0.3176
7010.00,0.3180
7009.00,0.3185
7008.00,0.3190
7007.00,0.3194
7006.00,0.3199
7005.00,0.3203
7004.00,0.3206
7003.00,0.3210
7002.00,0.3214
7001.00,0.3218
7000.00,0.3221
6999.00,0.3225
6998.00,0.3228
6997.00,0.3232
6996.00,0.3236
6995.00,0.3240
6994.00,0.3243
6993.00,0.3247
6992.00,0.3250
6991.00,0.3254
6990.00,0.3257
6989.00,0.3260
6988.00,0.3263
6987.00,0.3267
6986.00,0.3271
6985.00,0.3276
6984.00,0.3279
6983.00,0.3282
6982.00,0.3285
6981.00,0.3288
6980.00,0.3292
6979.00,0.3295
6978.00,0.3297
6977.00,0.3301
6976.00,0.3305
6975.00,0.3309
6974.00,0.3312
6973.00,0.3315
6972.00,0.3318
6971.00,0.3320
6970.00,0.3322
6969.00,0.3324
6968.00,0.3327
6967.00,0.3330
6966.00,0.3333
6965.00,0.3337
6964.00,0.3340
6963.00,0.3344
6962.00,0.3347
6961.00,0.3350
6960.00,0.3353
6959.00,0.3356
6958.00,0.3359
6957.00,0.3361
6956.00,0.3364
6955.00,0.3366
6954.00,0.3368
6953.00,0.3370
6952.00,0.3371
6951.00,0.3373
6950.00,0.3376
6949.00,0.3378
6948.00,0.3381
6947.00,0.3383
6946.00,0.3385
6945.00,0.3387
6944.00,0.3390
6943.00,0.3392
6942.00,0.3394
6941.00,0.3397
6940.00,0.3399
6939.00,0.3401
6938.00,0.3404
6937.00,0.3406
6936.00,0.3408
6935.00,0.3411
6934.00,0.3412
6933.00,0.3414
6932.00,0.3415
6931.00,0.3417
6930.00,0.3418
6929.00,0.3420
6928.00,0.3421
6927.00,0.3423
6926.00,0.3425
6925.00,0.3427
6924.00,0.3429
6923.00,0.3431
6922.00,0.3433
6921.00,0.3436
6920.00,0.3437
6919.00,0.3439
6918.00,0.3440
6917.00,0.3442
6916.00,0.3443
6915.00,0.3444
6914.00,0.3445
6913.00,0.3445
6912.00,0.3446
6911.00,0.3448
6910.00,0.3450
6909.00,0.3452
6908.00,0.3453
6907.00,0.3454
6906.00,0.3455
6905.00,0.3457
6904.00,0.3458
6903.00,0.3459
6902.00,0.3460
6901.00,0.3462
6900.00,0.3463
6899.00,0.3465
6898.00,0.3467
6897.00,0.3469
6896.00,0.3471
6895.00,0.3472
6894.00,0.3473
6893.00,0.3474
6892.00,0.3475
6891.00,0.3476
6890.00,0.3477
6889.00,0.3478
6888.00,0.3478
6887.00,0.3479
6886.00,0.3480
6885.00,0.3481
6884.00,0.3481
6883.00,0.3482
6882.00,0.3482
6881.00,0.3484
6880.00,0.3486
6879.00,0.3487
6878.00,0.3488
6877.00,0.3489
6876.00,0.3490
6875.00,0.3491
6874.00,0.3492
6873.00,0.3492
6872.00,0.3493
6871.00,0.3494
6870.00,0.3495
6869.00,0.3496
6868.00,0.3497
6867.00,0.3498
6866.00,0.3499
6865.00,0.3500
6864.00,0.3501
6863.00,0.3501
6862.00,0.3501
6861.00,0.3502
6860.00,0.3502
6859.00,0.3503
6858.00,0.3503
6857.00,0.3505
6856.00,0.3506
6855.00,0.3508
6854.00,0.3509
6853.00,0.3510
6852.00,0.3511
6851.00,0.3512
6850.00,0.3512
6849.00,0.3513
6848.00,0.3513
6847.00,0.3513
6846.00,0.3514
6845.00,0.3514
6844.00,0.3514
6843.00,0.3514
6842.00,0.3515
6841.00,0.3515
6840.00,0.3516
6839.00,0.3516
6838.00,0.3517
6837.00,0.3518
6836.00,0.3519
6835.00,0.3519
6834.00,0.3520
6833.00,0.3520
6832.00,0.3520
6831.00,0.3521
6830.00,0.3522
6829.00,0.3522
6828.00,0.3523
6827.00,0.3523
6826.00,0.3523
6825.00,0.3523
6824.00,0.3523
6823.00,0.3523
6822.00,0.3524
6821.00,0.3525
6820.00,0.3526
6819.00,0.3527
6818.00,0.3528
6817.00,0.3528
6816.00,0.3529
6815.00,0.3529
6814.00,0.3529
6813.00,0.3529
6812.00,0.3529
6811.00,0.3529
6810.00,0.3530
6809.00,0.3531
6808.00,0.3532
6807.00,0.3533
6806.00,0.3533
6805.00,0.3534
6804.00,0.3534
6803.00,0.3534
6802.00,0.3534
6801.00,0.3534
6800.00,0.3534
6799.00,0.3534
6798.00,0.3534
6797.00,0.3534
6796.00,0.3534
6795.00,0.3534
6794.00,0.3533
6793.00,0.3533
6792.00,0.3533
6791.00,0.3534
6790.00,0.3534
6789.00,0.3534
6788.00,0.3534
6787.00,0.3534
6786.00,0.3534
6785.00,0.3534
6784.00,0.3534
6783.00,0.3534
6782.00,0.3534
6781.00,0.3534
6780.00,0.3534
6779.00,0.3534
6778.00,0.3534
6777.00,0.3534
6776.00,0.3534
6775.00,0.3534
6774.00,0.3533
6773.00,0.3533
6772.00,0.3534
6771.00,0.3534
6770.00,0.3534
6769.00,0.3534
6768.00,0.3533
6767.00,0.3532
6766.00,0.3532
6765.00,0.3532
6764.00,0.3532
6763.00,0.3531
6762.00,0.3531
6761.00,0.3531
6760.00,0.3532
6759.00,0.3532
6758.00,0.3532
6757.00,0.3532
6756.00,0.3531
6755.00,0.3531
6754.00,0.3531
6753.00,0.3531
6752.00,0.3531
6751.00,0.3531
6750.00,0.3530
6749.00,0.3530
6748.00,0.3530
6747.00,0.3529
6746.00,0.3529
6745.00,0.3529
6744.00,0.3528
6743.00,0.3528
6742.00,0.3528
6741.00,0.3528
6740.00,0.3527
6739.00,0.3527
6738.00,0.3526
6737.00,0.3526
6736.00,0.3527
6735.00,0.3526
6734.00,0.3526
6733.00,0.3526
6732.00,0.3526
6731.00,0.3525
6730.00,0.3524
6729.00,0.3523
6728.00,0.3523
6727.00,0.3522
6726.00,0.3522
6725.00,0.3522
6724.00,0.3522
6723.00,0.3522
6722.00,0.3522
6721.00,0.3521
6720.00,0.3521
6719.00,0.3520
6718.00,0.3519
6717.00,0.3519
6716.00,0.3518
6715.00,0.3517
6714.00,0.3517
6713.00,0.3516
6712.00,0.3516
6711.00,0.3516
6710.00,0.3515
6709.00,0.3514
6708.00,0.3514
6707.00,0.3514
6706.00,0.3513
6705.00,0.3513
6704.00,0.3512
6703.00,0.3512
6702.00,0.3511
6701.00,0.3511
6700.00,0.3510
6699.00,0.3509
6698.00,0.3508
6697.00,0.3507
6696.00,0.3507
6695.00,0.3507
6694.00,0.3507
6693.00,0.3506
6692.00,0.3506
6691.00,0.3506
6690.00,0.3506
6689.00,0.3506
6688.00,0.3505
6687.00,0.3505
6686.00,0.3504
6685.00,0.3503
6684.00,0.3502
6683.00,0.3502
6682.00,0.3501
6681.00,0.3500
6680.00,0.3500
6679.00,0.3499
6678.00,0.3499
6677.00,0.3498
6676.00,0.3497
6675.00,0.3496
6674.00,0.3496
6673.00,0.3496
6672.00,0.3495
6671.00,0.3495
6670.00,0.3495
6669.00,0.3494
6668.00,0.3493
6667.00,0.3492
6666.00,0.3491
6665.00,0.3490
6664.00,0.3489
6663.00,0.3488
6662.00,0.3487
6661.00,0.3486
6660.00,0.3485
6659.00,0.3485
6658.00,0.3484
6657.00,0.3484
6656.00,0.3484
6655.00,0.3484
6654.00,0.3484
6653.00,0.3483
6652.00,0.3482
6651.00,0.3480
6650.00,0.3479
6649.00,0.3478
6648.00,0.3478
6647.00,0.3477
6646.00,0.3478
6645.00,0.3478
6644.00,0.3478
6643.00,0.3478
6642.00,0.3477
6641.00,0.3476
6640.00,0.3476
6639.00,0.3475
6638.00,0.3474
6637.00,0.3473
6636.00,0.3472
6635.00,0.3471
6634.00,0.3470
6633.00,0.3469
6632.00,0.3468
6631.00,0.3467
6630.00,0.3466
6629.00,0.3466
6628.00,0.3466
6627.00,0.3466
6626.00,0.3465
6625.00,0.3465
6624.00,0.3464
6623.00,0.3463
6622.00,0.3462
6621.00,0.3461
6620.00,0.3460
6619.00,0.3459
6618.00,0.3459
6617.00,0.3458
6616.00,0.3458
6615.00,0.3457
6614.00,0.3456
6613.00,0.3455
6612.00,0.3454
6611.00,0.3454
6610.00,0.3453
6609.00,0.3452
6608.00,0.3452
6607.00,0.3451
6606.00,0.3450
6605.00,0.3450
6604.00,0.3449
6603.00,0.3447
6602.00,0.3447
6601.00,0.3446
6600.00,0.3445
6599.00,0.3445
6598.00,0.3444
6597.00,0.3443
6596.00,0.3443
6595.00,0.3443
6594.00,0.3442
6593.00,0.3442
6592.00,0.3441
6591.00,0.3440
6590.00,0.3439
6589.00,0.3438
6588.00,0.3437
6587.00,0.3437
6586.00,0.3436
6585.00,0.3436
6584.00,0.3435
6583.00,0.3435
6582.00,0.3434
6581.00,0.3434
6580.00,0.3433
6579.00,0.3432
6578.00,0.3431
6577.00,0.3430
6576.00,0.3429
6575.00,0.3428
6574.00,0.3428
6573.00,0.3427
6572.00,0.3427
6571.00,0.3427
6570.00,0.3427
6569.00,0.3426
6568.00,0.3426
6567.00,0.3425
6566.00,0.3424
6565.00,0.3424
6564.00,0.3423
6563.00,0.3422
6562.00,0.3421
6561.00,0.3421
6560.00,0.3420
6559.00,0.3420
6558.00,0.3419
6557.00,0.3419
6556.00,0.3418
6555.00,0.3418
6554.00,0.3418
6553.00,0.3417
6552.00,0.3417
6551.00,0.3416
6550.00,0.3415
6549.00,0.3415
6548.00,0.3414
6547.00,0.3413
6546.00,0.3413
6545.00,0.3412
6544.00,0.3412
6543.00,0.3411
6542.00,0.3411
6541.00,0.3411
6540.00,0.3411
6539.00,0.3411
6538.00,0.3411
6537.00,0.3410
6536.00,0.3410
6535.00,0.3410
6534.00,0.3410
6533.00,0.3409
6532.00,0.3409
6531.00,0.3409
6530.00,0.3409
6529.00,0.3409
6528.00,0.3408
6527.00,0.3407
6526.00,0.3406
6525.00,0.3406
6524.00,0.3405
6523.00,0.3405
6522.00,0.3404
6521.00,0.3404
6520.00,0.3404
6519.00,0.3404
6518.00,0.3404
6517.00,0.3404
6516.00,0.3404
6515.00,0.3404
6514.00,0.3404
6513.00,0.3403
6512.00,0.3403
6511.00,0.3403
6510.00,0.3403
6509.00,0.3403
6508.00,0.3403
6507.00,0.3403
6506.00,0.3403
6505.00,0.3403
6504.00,0.3402
6503.00,0.3402
6502.00,0.3401
6501.00,0.3401
6500.00,0.3400
6499.00,0.3400
6498.00,0.3400
6497.00,0.3399
6496.00,0.3399
6495.00,0.3400
6494.00,0.3400
6493.00,0.3400
6492.00,0.3400
6491.00,0.3400
6490.00,0.3401
6489.00,0.3401
6488.00,0.3401
6487.00,0.3401
6486.00,0.3401
6485.00,0.3400
6484.00,0.3400
6483.00,0.3400
6482.00,0.3399
6481.00,0.3399
6480.00,0.3399
6479.00,0.3399
6478.00,0.3400
6477.00,0.3400
6476.00,0.3400
6475.00,0.3400
6474.00,0.3400
6473.00,0.3400
6472.00,0.3400
6471.00,0.3401
6470.00,0.3401
6469.00,0.3402
6468.00,0.3402
6467.00,0.3403
6466.00,0.3403
6465.00,0.3403
6464.00,0.3403
6463.00,0.3403
6462.00,0.3402
6461.00,0.3402
6460.00,0.3401
6459.00,0.3401
6458.00,0.3402
6457.00,0.3402
6456.00,0.3402
6455.00,0.3402
6454.00,0.3402
6453.00,0.3402
6452.00,0.3402
6451.00,0.3402
6450.00,0.3402
6449.00,0.3402
6448.00,0.3402
6447.00,0.3402
6446.00,0.3402
6445.00,0.3403
6444.00,0.3403
6443.00,0.3403
6442.00,0.3404
6441.00,0.3404
6440.00,0.3404
6439.00,0.3404
6438.00,0.3404
6437.00,0.3405
6436.00,0.3404
6435.00,0.3404
6434.00,0.3404
6433.00,0.3405
6432.00,0.3405
6431.00,0.3406
6430.00,0.3406
6429.00,0.3406
6428.00,0.3406
6427.00,0.3407
6426.00,0.3407
6425.00,0.3408
6424.00,0.3409
6423.00,0.3409
6422.00,0.3409
6421.00,0.3410
6420.00,0.3410
6419.00,0.3409
6418.00,0.3409
6417.00,0.3409
6416.00,0.3409
6415.00,0.3408
6414.00,0.3408
6413.00,0.3409
6412.00,0.3409
6411.00,0.3409
6410.00,0.3410
6409.00,0.3410
6408.00,0.3411
6407.00,0.3411
6406.00,0.3411
6405.00,0.3411
6404.00,0.3411
6403.00,0.3411
6402.00,0.3411
6401.00,0.3411
6400.00,0.3411
6399.00,0.3411
6398.00,0.3412
6397.00,0.3412
6396.00,0.3412
6395.00,0.3412
6394.00,0.3412
6393.00,0.3412
6392.00,0.3411
6391.00,0.3411
6390.00,0.3411
6389.00,0.3411
6388.00,0.3411
6387.00,0.3412
6386.00,0.3412
6385.00,0.3412
6384.00,0.3412
6383.00,0.3413
6382.00,0.3413
6381.00,0.3413
6380.00,0.3413
6379.00,0.3413
6378.00,0.3413
6377.00,0.3413
6376.00,0.3413
6375.00,0.3414
6374.00,0.3414
6373.00,0.3415
6372.00,0.3415
6371.00,0.3416
6370.00,0.3416
6369.00,0.3416
6368.00,0.3416
6367.00,0.3415
6366.00,0.3415
6365.00,0.3416
6364.00,0.3416
6363.00,0.3416
6362.00,0.3416
6361.00,0.3416
6360.00,0.3416
6359.00,0.3416
6358.00,0.3416
6357.00,0.3417
6356.00,0.3417
6355.00,0.3417
6354.00,0.3417
6353.00,0.3417
6352.00,0.3417
6351.00,0.3416
6350.00,0.3416
6349.00,0.3416
6348.00,0.3416
6347.00,0.3416
6346.00,0.3416
6345.00,0.3416
6344.00,0.3416
6343.00,0.3416
6342.00,0.3416
6341.00,0.3416
6340.00,0.3416
6339.00,0.3416
6338.00,0.3416
6337.00,0.3417
6336.00,0.3417
6335.00,0.3417
6334.00,0.3417
6333.00,0.3417
6332.00,0.3416
6331.00,0.3416
6330.00,0.3415
6329.00,0.3415
6328.00,0.3414
6327.00,0.3414
6326.00,0.3414
6325.00,0.3414
6324.00,0.3414
6323.00,0.3414
6322.00,0.3414
6321.00,0.3414
6320.00,0.3413
6319.00,0.3413
6318.00,0.3412
6317.00,0.3412
6316.00,0.3413
6315.00,0.3413
6314.00,0.3413
6313.00,0.3414
6312.00,0.3414
6311.00,0.3413
6310.00,0.3413
6309.00,0.3412
6308.00,0.3412
6307.00,0.3411
6306.00,0.3410
6305.00,0.3410
6304.00,0.3410
6303.00,0.3409
6302.00,0.3409
6301.00,0.3408
6300.00,0.3408
6299.00,0.3408
6298.00,0.3408
6297.00,0.3408
6296.00,0.3408
6295.00,0.3407
6294.00,0.3407
6293.00,0.3406
6292.00,0.3406
6291.00,0.3406
6290.00,0.3405
6289.00,0.3405
6288.00,0.3404
6287.00,0.3404
6286.00,0.3403
6285.00,0.3403
6284.00,0.3402
6283.00,0.3402
6282.00,0.3401
6281.00,0.3401
6280.00,0.3400
6279.00,0.3400
6278.00,0.3399
6277.00,0.3399
6276.00,0.3398
6275.00,0.3398
6274.00,0.3397
6273.00,0.3397
6272.00,0.3397
6271.00,0.3397
6270.00,0.3396
6269.00,0.3396
6268.00,0.3395
6267.00,0.3394
6266.00,0.3394
6265.00,0.3393
6264.00,0.3392
6263.00,0.3392
6262.00,0.3391
6261.00,0.3391
6260.00,0.3391
6259.00,0.3390
6258.00,0.3389
6257.00,0.3389
6256.00,0.3388
6255.00,0.3388
6254.00,0.3388
6253.00,0.3387
6252.00,0.3386
6251.00,0.3386
6250.00,0.3385
6249.00,0.3385
6248.00,0.3385
6247.00,0.3384
6246.00,0.3384
6245.00,0.3383
6244.00,0.3382
6243.00,0.3381
6242.00,0.3380
6241.00,0.3379
6240.00,0.3378
6239.00,0.3378
6238.00,0.3377
6237.00,0.3376
6236.00,0.3375
6235.00,0.3375
6234.00,0.3374
6233.00,0.3373
6232.00,0.3373
6231.00,0.3372
6230.00,0.3371
6229.00,0.3371
6228.00,0.3370
6227.00,0.3369
6226.00,0.3369
6225.00,0.3368
6224.00,0.3368
6223.00,0.3367
6222.00,0.3367
6221.00,0.3366
6220.00,0.3366
6219.00,0.3365
6218.00,0.3364
6217.00,0.3363
6216.00,0.3363
6215.00,0.3361
6214.00,0.3360
6213.00,0.3359
6212.00,0.3358
6211.00,0.3358
6210.00,0.3357
6209.00,0.3356
6208.00,0.3356
6207.00,0.3355
6206.00,0.3355
6205.00,0.3354
6204.00,0.3353
6203.00,0.3352
6202.00,0.3351
6201.00,0.3351
6200.00,0.3351
6199.00,0.3350
6198.00,0.3349
6197.00,0.3349
6196.00,0.3348
6195.00,0.3347
6194.00,0.3346
6193.00,0.3345
6192.00,0.3344
6191.00,0.3343
6190.00,0.3343
6189.00,0.3342
6188.00,0.3341
6187.00,0.3340
6186.00,0.3339
6185.00,0.3338
6184.00,0.3338
6183.00,0.3337
6182.00,0.3336
6181.00,0.3335
6180.00,0.3335
6179.00,0.3334
6178.00,0.3333
6177.00,0.3333
6176.00,0.3332
6175.00,0.3332
6174.00,0.3331
6173.00,0.3331
6172.00,0.3330
6171.00,0.3329
6170.00,0.3328
6169.00,0.3327
6168.00,0.3326
6167.00,0.3326
6166.00,0.3325
6165.00,0.3324
6164.00,0.3324
6163.00,0.3323
6162.00,0.3322
6161.00,0.3322
6160.00,0.3321
6159.00,0.3320
6158.00,0.3319
6157.00,0.3318
6156.00,0.3318
6155.00,0.3317
6154.00,0.3317
6153.00,0.3316
6152.00,0.3315
6151.00,0.3315
6150.00,0.3314
6149.00,0.3313
6148.00,0.3313
6147.00,0.3312
6146.00,0.3311
6145.00,0.3311
6144.00,0.3310
6143.00,0.3309
6142.00,0.3308
6141.00,0.3307
6140.00,0.3306
6139.00,0.3304
6138.00,0.3303
6137.00,0.3302
6136.00,0.3302
6135.00,0.3301
6134.00,0.3300
6133.00,0.3300
6132.00,0.3299
6131.00,0.3298
6130.00,0.3297
6129.00,0.3296
6128.00,0.3295
6127.00,0.3294
6126.00,0.3294
6125.00,0.3293
6124.00,0.3293
6123.00,0.3292
6122.00,0.3291
6121.00,0.3290
6120.00,0.3290
6119.00,0.3289
6118.00,0.3288
6117.00,0.3287
6116.00,0.3287
6115.00,0.3286
6114.00,0.3286
6113.00,0.3285
6112.00,0.3285
6111.00,0.3284
6110.00,0.3283
6109.00,0.3282
6108.00,0.3281
6107.00,0.3280
6106.00,0.3279
6105.00,0.3278
6104.00,0.3277
6103.00,0.3276
6102.00,0.3275
6101.00,0.3275
6100.00,0.3274
6099.00,0.3274
6098.00,0.3274
6097.00,0.3274
6096.00,0.3274
6095.00,0.3273
6094.00,0.3273
6093.00,0.3272
6092.00,0.3271
6091.00,0.3270
6090.00,0.3269
6089.00,0.3267
6088.00,0.3266
6087.00,0.3266
6086.00,0.3265
6085.00,0.3265
6084.00,0.3264
6083.00,0.3263
6082.00,0.3262
6081.00,0.3261
6080.00,0.3261
6079.00,0.3260
6078.00,0.3260
6077.00,0.3259
6076.00,0.3258
6075.00,0.3257
6074.00,0.3256
6073.00,0.3255
6072.00,0.3254
6071.00,0.3253
6070.00,0.3252
6069.00,0.3252
6068.00,0.3251
6067.00,0.3251
6066.00,0.3250
6065.00,0.3250
6064.00,0.3249
6063.00,0.3249
6062.00,0.3248
6061.00,0.3248
6060.00,0.3247
6059.00,0.3247
6058.00,0.3246
6057.00,0.3246
6056.00,0.3245
6055.00,0.3245
6054.00,0.3244
6053.00,0.3244
6052.00,0.3243
6051.00,0.3243
6050.00,0.3242
6049.00,0.3241
6048.00,0.3240
6047.00,0.3240
6046.00,0.3239
6045.00,0.3239
6044.00,0.3239
6043.00,0.3238
6042.00,0.3238
6041.00,0.3238
6040.00,0.3238
6039.00,0.3237
6038.00,0.3237
6037.00,0.3236
6036.00,0.3236
6035.00,0.3236
6034.00,0.3236
6033.00,0.3235
6032.00,0.3235
6031.00,0.3235
6030.00,0.3235
6029.00,0.3234
6028.00,0.3234
6027.00,0.3234
6026.00,0.3233
6025.00,0.3233
6024.00,0.3232
6023.00,0.3231
6022.00,0.3231
6021.00,0.3231
6020.00,0.3231
6019.00,0.3230
6018.00,0.3230
6017.00,0.3230
6016.00,0.3230
6015.00,0.3229
6014.00,0.3229
6013.00,0.3229
6012.00,0.3229
6011.00,0.3229
6010.00,0.3229
6009.00,0.3230
6008.00,0.3230
6007.00,0.3230
6006.00,0.3229
6005.00,0.3229
6004.00,0.3229
6003.00,0.3229
6002.00,0.3229
6001.00,0.3229
6000.00,0.3229
5999.00,0.3229
5998.00,0.3229
5997.00,0.3229
5996.00,0.3229
5995.00,0.3229
5994.00,0.3229
5993.00,0.3229
5992.00,0.3229
5991.00,0.3229
5990.00,0.3229
5989.00,0.3230
5988.00,0.3230
5987.00,0.3230
5986.00,0.3231
5985.00,0.3231
5984.00,0.3231
5983.00,0.3232
5982.00,0.3232
5981.00,0.3232
5980.00,0.3233
5979.00,0.3233
5978.00,0.3233
5977.00,0.3233
5976.00,0.3234
5975.00,0.3235
5974.00,0.3236
5973.00,0.3236
5972.00,0.3237
5971.00,0.3238
5970.00,0.3238
5969.00,0.3239
5968.00,0.3240
5967.00,0.3241
5966.00,0.3242
5965.00,0.3244
5964.00,0.3245
5963.00,0.3246
5962.00,0.3247
5961.00,0.3248
5960.00,0.3249
5959.00,0.3250
5958.00,0.3251
5957.00,0.3252
5956.00,0.3252
5955.00,0.3254
5954.00,0.3255
5953.00,0.3257
5952.00,0.3259
5951.00,0.3260
5950.00,0.3262
5949.00,0.3264
5948.00,0.3265
5947.00,0.3266
5946.00,0.3267
5945.00,0.3269
5944.00,0.3270
5943.00,0.3272
5942.00,0.3273
5941.00,0.3275
5940.00,0.3277
5939.00,0.3279
5938.00,0.3280
5937.00,0.3282
5936.00,0.3284
5935.00,0.3285
5934.00,0.3287
5933.00,0.3288
5932.00,0.3290
5931.00,0.3291
5930.00,0.3293
5929.00,0.3294
5928.00,0.3296
5927.00,0.3297
5926.00,0.3299
5925.00,0.3300
5924.00,0.3301
5923.00,0.3302
5922.00,0.3303
5921.00,0.3304
5920.00,0.3305
5919.00,0.3307
5918.00,0.3308
5917.00,0.3309
5916.00,0.3311
5915.00,0.3312
5914.00,0.3313
5913.00,0.3313
5912.00,0.3314
5911.00,0.3315
5910.00,0.3315
5909.00,0.3315
5908.00,0.3316
5907.00,0.3316
5906.00,0.3317
5905.00,0.3318
5904.00,0.3319
5903.00,0.3319
5902.00,0.3320
5901.00,0.3320
5900.00,0.3321
5899.00,0.3321
5898.00,0.3321
5897.00,0.3321
5896.00,0.3322
5895.00,0.3322
5894.00,0.3323
5893.00,0.3324
5892.00,0.3324
5891.00,0.3325
5890.00,0.3325
5889.00,0.3325
5888.00,0.3325
5887.00,0.3326
5886.00,0.3326
5885.00,0.3327
5884.00,0.3327
5883.00,0.3328
5882.00,0.3328
5881.00,0.3328
5880.00,0.3329
5879.00,0.3329
5878.00,0.3330
5877.00,0.3331
5876.00,0.3332
5875.00,0.3332
5874.00,0.3333
5873.00,0.3334
5872.00,0.3334
5871.00,0.3334
5870.00,0.3335
5869.00,0.3335
5868.00,0.3335
5867.00,0.3336
5866.00,0.3337
5865.00,0.3338
5864.00,0.3338
5863.00,0.3339
5862.00,0.3339
5861.00,0.3340
5860.00,0.3340
5859.00,0.3341
5858.00,0.3341
5857.00,0.3341
5856.00,0.3342
5855.00,0.3342
5854.00,0.3343
5853.00,0.3344
5852.00,0.3345
5851.00,0.3346
5850.00,0.3347
5849.00,0.3348
5848.00,0.3349
5847.00,0.3350
5846.00,0.3351
5845.00,0.3352
5844.00,0.3352
5843.00,0.3353
5842.00,0.3353
5841.00,0.3354
5840.00,0.3355
5839.00,0.3356
5838.00,0.3357
5837.00,0.3359
5836.00,0.3360
5835.00,0.3362
5834.00,0.3363
5833.00,0.3364
5832.00,0.3365
5831.00,0.3366
5830.00,0.3367
5829.00,0.3369
5828.00,0.3370
5827.00,0.3372
5826.00,0.3373
5825.00,0.3375
5824.00,0.3376
5823.00,0.3376
5822.00,0.3377
5821.00,0.3378
5820.00,0.3379
5819.00,0.3380
5818.00,0.3382
5817.00,0.3383
5816.00,0.3385
5815.00,0.3386
5814.00,0.3388
5813.00,0.3389
5812.00,0.3391
5811.00,0.3392
5810.00,0.3393
5809.00,0.3394
5808.00,0.3395
5807.00,0.3396
5806.00,0.3397
5805.00,0.3398
5804.00,0.3400
5803.00,0.3401
5802.00,0.3402
5801.00,0.3403
5800.00,0.3404
5799.00,0.3405
5798.00,0.3406
5797.00,0.3407
5796.00,0.3408
5795.00,0.3410
5794.00,0.3411
5793.00,0.3413
5792.00,0.3414
5791.00,0.3415
5790.00,0.3416
5789.00,0.3417
5788.00,0.3418
5787.00,0.3419
5786.00,0.3419
5785.00,0.3420
5784.00,0.3421
5783.00,0.3421
5782.00,0.3422
5781.00,0.3423
5780.00,0.3424
5779.00,0.3424
5778.00,0.3425
5777.00,0.3425
5776.00,0.3426
5775.00,0.3426
5774.00,0.3427
5773.00,0.3427
5772.00,0.3428
5771.00,0.3428
5770.00,0.3429
5769.00,0.3429
5768.00,0.3429
5767.00,0.3430
5766.00,0.3431
5765.00,0.3431
5764.00,0.3432
5763.00,0.3432
5762.00,0.3432
5761.00,0.3432
5760.00,0.3432
5759.00,0.3432
5758.00,0.3432
5757.00,0.3432
5756.00,0.3433
5755.00,0.3433
5754.00,0.3433
5753.00,0.3433
5752.00,0.3434
5751.00,0.3434
5750.00,0.3434
5749.00,0.3435
5748.00,0.3435
5747.00,0.3435
5746.00,0.3435
5745.00,0.3436
5744.00,0.3436
5743.00,0.3436
5742.00,0.3437
5741.00,0.3438
5740.00,0.3438
5739.00,0.3438
5738.00,0.3438
5737.00,0.3438
5736.00,0.3438
5735.00,0.3437
5734.00,0.3437
5733.00,0.3437
5732.00,0.3438
5731.00,0.3438
5730.00,0.3438
5729.00,0.3438
5728.00,0.3438
5727.00,0.3439
5726.00,0.3439
5725.00,0.3439
5724.00,0.3439
5723.00,0.3439
5722.00,0.3439
5721.00,0.3439
5720.00,0.3440
5719.00,0.3440
5718.00,0.3440
5717.00,0.3441
5716.00,0.3441
5715.00,0.3442
5714.00,0.3442
5713.00,0.3443
5712.00,0.3443
5711.00,0.3443
5710.00,0.3443
5709.00,0.3443
5708.00,0.3443
5707.00,0.3443
5706.00,0.3443
5705.00,0.3443
5704.00,0.3444
5703.00,0.3444
5702.00,0.3444
5701.00,0.3445
5700.00,0.3445
5699.00,0.3445
5698.00,0.3445
5697.00,0.3445
5696.00,0.3446
5695.00,0.3446
5694.00,0.3447
5693.00,0.3447
5692.00,0.3447
5691.00,0.3447
5690.00,0.3447
5689.00,0.3448
5688.00,0.3448
5687.00,0.3448
5686.00,0.3448
5685.00,0.3449
5684.00,0.3449
5683.00,0.3450
5682.00,0.3450
5681.00,0.3450
5680.00,0.3450
5679.00,0.3450
5678.00,0.3450
5677.00,0.3449
5676.00,0.3449
5675.00,0.3450
5674.00,0.3450
5673.00,0.3451
5672.00,0.3451
5671.00,0.3452
5670.00,0.3452
5669.00,0.3452
5668.00,0.3452
5667.00,0.3451
5666.00,0.3451
5665.00,0.3451
5664.00,0.3451
5663.00,0.3451
5662.00,0.3450
5661.00,0.3450
5660.00,0.3450
5659.00,0.3450
5658.00,0.3450
5657.00,0.3451
5656.00,0.3451
5655.00,0.3451
5654.00,0.3450
5653.00,0.3450
5652.00,0.3450
5651.00,0.3450
5650.00,0.3450
5649.00,0.3450
5648.00,0.3451
5647.00,0.3451
5646.00,0.3451
5645.00,0.3450
5644.00,0.3450
5643.00,0.3450
5642.00,0.3449
5641.00,0.3449
5640.00,0.3449
5639.00,0.3449
5638.00,0.3449
5637.00,0.3449
5636.00,0.3449
5635.00,0.3449
5634.00,0.3449
5633.00,0.3449
5632.00,0.3449
5631.00,0.3449
5630.00,0.3448
5629.00,0.3448
5628.00,0.3448
5627.00,0.3448
5626.00,0.3448
5625.00,0.3448
5624.00,0.3447
5623.00,0.3446
5622.00,0.3446
5621.00,0.3446
5620.00,0.3445
5619.00,0.3446
5618.00,0.3446
5617.00,0.3446
5616.00,0.3446
5615.00,0.3446
5614.00,0.3445
5613.00,0.3445
5612.00,0.3445
5611.00,0.3444
5610.00,0.3444
5609.00,0.3444
5608.00,0.3444
5607.00,0.3444
5606.00,0.3444
5605.00,0.3444
5604.00,0.3443
5603.00,0.3443
5602.00,0.3442
5601.00,0.3442
5600.00,0.3441
5599.00,0.3441
5598.00,0.3440
5597.00,0.3440
5596.00,0.3439
5595.00,0.3439
5594.00,0.3438
5593.00,0.3438
5592.00,0.3437
5591.00,0.3437
5590.00,0.3437
5589.00,0.3436
5588.00,0.3436
5587.00,0.3435
5586.00,0.3435
5585.00,0.3434
5584.00,0.3433
5583.00,0.3432
5582.00,0.3432
5581.00,0.3432
5580.00,0.3432
5579.00,0.3432
5578.00,0.3431
5577.00,0.3431
5576.00,0.3430
5575.00,0.3430
5574.00,0.3429
5573.00,0.3428
5572.00,0.3428
5571.00,0.3428
5570.00,0.3427
5569.00,0.3427
5568.00,0.3427
5567.00,0.3426
5566.00,0.3425
5565.00,0.3425
5564.00,0.3424
5563.00,0.3423
5562.00,0.3423
5561.00,0.3422
5560.00,0.3422
5559.00,0.3422
5558.00,0.3421
5557.00,0.3422
5556.00,0.3422
5555.00,0.3421
5554.00,0.3421
5553.00,0.3421
5552.00,0.3420
5551.00,0.3419
5550.00,0.3419
5549.00,0.3418
5548.00,0.3417
5547.00,0.3416
5546.00,0.3415
5545.00,0.3414
5544.00,0.3413
5543.00,0.3412
5542.00,0.3412
5541.00,0.3413
5540.00,0.3414
5539.00,0.3414
5538.00,0.3414
5537.00,0.3413
5536.00,0.3412
5535.00,0.3410
5534.00,0.3409
5533.00,0.3408
5532.00,0.3407
5531.00,0.3407
5530.00,0.3406
5529.00,0.3406
5528.00,0.3405
5527.00,0.3406
5526.00,0.3407
5525.00,0.3408
5524.00,0.3408
5523.00,0.3408
5522.00,0.3407
5521.00,0.3407
5520.00,0.3406
5519.00,0.3405
5518.00,0.3405
5517.00,0.3404
5516.00,0.3403
5515.00,0.3401
5514.00,0.3400
5513.00,0.3401
5512.00,0.3403
5511.00,0.3405
5510.00,0.3407
5509.00,0.3408
5508.00,0.3407
5507.00,0.3405
5506.00,0.3402
5505.00,0.3399
5504.00,0.3398
5503.00,0.3397
5502.00,0.3397
5501.00,0.3396
5500.00,0.3396
5499.00,0.3396
5498.00,0.3398
5497.00,0.3403
5496.00,0.3407
5495.00,0.3410
5494.00,0.3411
5493.00,0.3412
5492.00,0.3410
5491.00,0.3407
5490.00,0.3402
5489.00,0.3398
5488.00,0.3395
5487.00,0.3392
5486.00,0.3388
5485.00,0.3385
5484.00,0.3383
5483.00,0.3383
5482.00,0.3383
5481.00,0.3386
5480.00,0.3391
5479.00,0.3397
5478.00,0.3402
5477.00,0.3403
5476.00,0.3400
5475.00,0.3395
5474.00,0.3390
5473.00,0.3386
5472.00,0.3384
5471.00,0.3385
5470.00,0.3387
5469.00,0.3389
5468.00,0.3389
5467.00,0.3387
5466.00,0.3387
5465.00,0.3388
5464.00,0.3389
5463.00,0.3389
5462.00,0.3388
5461.00,0.3385
5460.00,0.3382
5459.00,0.3379
5458.00,0.3376
5457.00,0.3373
5456.00,0.3372
5455.00,0.3371
5454.00,0.3371
5453.00,0.3373
5452.00,0.3374
5451.00,0.3378
5450.00,0.3382
5449.00,0.3385
5448.00,0.3385
5447.00,0.3385
5446.00,0.3384
5445.00,0.3384
5444.00,0.3383
5443.00,0.3379
5442.00,0.3374
5441.00,0.3369
5440.00,0.3367
5439.00,0.3367
5438.00,0.3368
5437.00,0.3368
5436.00,0.3369
5435.00,0.3369
5434.00,0.3370
5433.00,0.3371
5432.00,0.3372
5431.00,0.3373
5430.00,0.3372
5429.00,0.3369
5428.00,0.3362
5427.00,0.3354
5426.00,0.3347
5425.00,0.3343
5424.00,0.3342
5423.00,0.3341
5422.00,0.3341
5421.00,0.3340
5420.00,0.3341
5419.00,0.3345
5418.00,0.3351
5417.00,0.3358
5416.00,0.3364
5415.00,0.3368
5414.00,0.3371
5413.00,0.3370
5412.00,0.3364
5411.00,0.3356
5410.00,0.3348
5409.00,0.3343
5408.00,0.3338
5407.00,0.3335
5406.00,0.3334
5405.00,0.3333
5404.00,0.3333
5403.00,0.3332
5402.00,0.3332
5401.00,0.3332
5400.00,0.3335
5399.00,0.3339
5398.00,0.3344
5397.00,0.3348
5396.00,0.3349
5395.00,0.3346
5394.00,0.3341
5393.00,0.3336
5392.00,0.3332
5391.00,0.3332
5390.00,0.3334
5389.00,0.3339
5388.00,0.3343
5387.00,0.3344
5386.00,0.3342
5385.00,0.3338
5384.00,0.3334
5383.00,0.3331
5382.00,0.3332
5381.00,0.3337
5380.00,0.3343
5379.00,0.3349
5378.00,0.3351
5377.00,0.3351
5376.00,0.3348
5375.00,0.3342
5374.00,0.3336
5373.00,0.3332
5372.00,0.3330
5371.00,0.3330
5370.00,0.3331
5369.00,0.3334
5368.00,0.3337
5367.00,0.3341
5366.00,0.3343
5365.00,0.3345
5364.00,0.3344
5363.00,0.3343
5362.00,0.3341
5361.00,0.3340
5360.00,0.3341
5359.00,0.3345
5358.00,0.3353
5357.00,0.3363
5356.00,0.3371
5355.00,0.3376
5354.00,0.3375
5353.00,0.3373
5352.00,0.3369
5351.00,0.3367
5350.00,0.3368
5349.00,0.3375
5348.00,0.3385
5347.00,0.3392
5346.00,0.3393
5345.00,0.3390
5344.00,0.3388
5343.00,0.3389
5342.00,0.3391
5341.00,0.3395
5340.00,0.3400
5339.00,0.3403
5338.00,0.3402
5337.00,0.3398
5336.00,0.3394
5335.00,0.3392
5334.00,0.3393
5333.00,0.3397
5332.00,0.3402
5331.00,0.3408
5330.00,0.3411
5329.00,0.3413
5328.00,0.3414
5327.00,0.3414
5326.00,0.3413
5325.00,0.3412
5324.00,0.3412
5323.00,0.3415
5322.00,0.3420
5321.00,0.3425
5320.00,0.3431
5319.00,0.3436
5318.00,0.3441
5317.00,0.3445
5316.00,0.3449
5315.00,0.3453
5314.00,0.3457
5313.00,0.3463
5312.00,0.3470
5311.00,0.3478
5310.00,0.3487
5309.00,0.3493
5308.00,0.3498
5307.00,0.3502
5306.00,0.3506
5305.00,0.3509
5304.00,0.3515
5303.00,0.3522
5302.00,0.3530
5301.00,0.3537
5300.00,0.3543
5299.00,0.3549
5298.00,0.3555
5297.00,0.3562
5296.00,0.3570
5295.00,0.3581
5294.00,0.3594
5293.00,0.3606
5292.00,0.3616
5291.00,0.3624
5290.00,0.3632
5289.00,0.3639
5288.00,0.3647
5287.00,0.3656
5286.00,0.3666
5285.00,0.3677
5284.00,0.3688
5283.00,0.3698
5282.00,0.3707
5281.00,0.3716
5280.00,0.3727
5279.00,0.3737
5278.00,0.3748
5277.00,0.3759
5276.00,0.3771
5275.00,0.3783
5274.00,0.3797
5273.00,0.3812
5272.00,0.3827
5271.00,0.3841
5270.00,0.3857
5269.00,0.3873
5268.00,0.3890
5267.00,0.3907
5266.00,0.3923
5265.00,0.3938
5264.00,0.3951
5263.00,0.3961
5262.00,0.3969
5261.00,0.3977
5260.00,0.3989
5259.00,0.4004
5258.00,0.4022
5257.00,0.4038
5256.00,0.4053
5255.00,0.4066
5254.00,0.4078
5253.00,0.4091
5252.00,0.4106
5251.00,0.4123
5250.00,0.4143
5249.00,0.4162
5248.00,0.4178
5247.00,0.4191
5246.00,0.4199
5245.00,0.4206
5244.00,0.4214
5243.00,0.4223
5242.00,0.4233
5241.00,0.4243
5240.00,0.4254
5239.00,0.4268
5238.00,0.4282
5237.00,0.4296
5236.00,0.4310
5235.00,0.4324
5234.00,0.4339
5233.00,0.4352
5232.00,0.4363
5231.00,0.4375
5230.00,0.4387
5229.00,0.4401
5228.00,0.4414
5227.00,0.4426
5226.00,0.4437
5225.00,0.4444
5224.00,0.4449
5223.00,0.4455
5222.00,0.4463
5221.00,0.4474
5220.00,0.4485
5219.00,0.4494
5218.00,0.4502
5217.00,0.4508
5216.00,0.4514
5215.00,0.4522
5214.00,0.4532
5213.00,0.4544
5212.00,0.4558
5211.00,0.4574
5210.00,0.4589
5209.00,0.4601
5208.00,0.4608
5207.00,0.4610
5206.00,0.4609
5205.00,0.4607
5204.00,0.4607
5203.00,0.4611
5202.00,0.4618
5201.00,0.4627
5200.00,0.4637
5199.00,0.4645
5198.00,0.4651
5197.00,0.4654
5196.00,0.4657
5195.00,0.4659
5194.00,0.4663
5193.00,0.4668
5192.00,0.4674
5191.00,0.4680
5190.00,0.4686
5189.00,0.4692
5188.00,0.4697
5187.00,0.4701
5186.00,0.4704
5185.00,0.4705
5184.00,0.4707
5183.00,0.4708
5182.00,0.4709
5181.00,0.4711
5180.00,0.4714
5179.00,0.4716
5178.00,0.4717
5177.00,0.4717
5176.00,0.4719
5175.00,0.4721
5174.00,0.4723
5173.00,0.4725
5172.00,0.4726
5171.00,0.4726
5170.00,0.4725
5169.00,0.4725
5168.00,0.4726
5167.00,0.4727
5166.00,0.4728
5165.00,0.4729
5164.00,0.4729
5163.00,0.4728
5162.00,0.4727
5161.00,0.4726
5160.00,0.4725
5159.00,0.4726
5158.00,0.4726
5157.00,0.4724
5156.00,0.4722
5155.00,0.4720
5154.00,0.4717
5153.00,0.4715
5152.00,0.4713
5151.00,0.4711
5150.00,0.4708
5149.00,0.4706
5148.00,0.4704
5147.00,0.4702
5146.00,0.4701
5145.00,0.4700
5144.00,0.4698
5143.00,0.4696
5142.00,0.4693
5141.00,0.4690
5140.00,0.4686
5139.00,0.4683
5138.00,0.4681
5137.00,0.4678
5136.00,0.4676
5135.00,0.4673
5134.00,0.4670
5133.00,0.4666
5132.00,0.4663
5131.00,0.4660
5130.00,0.4657
5129.00,0.4654
5128.00,0.4650
5127.00,0.4647
5126.00,0.4644
5125.00,0.4641
5124.00,0.4639
5123.00,0.4637
5122.00,0.4634
5121.00,0.4632
5120.00,0.4628
5119.00,0.4625
5118.00,0.4622
5117.00,0.4618
5116.00,0.4615
5115.00,0.4611
5114.00,0.4608
5113.00,0.4604
5112.00,0.4601
5111.00,0.4597
5110.00,0.4594
5109.00,0.4590
5108.00,0.4587
5107.00,0.4584
5106.00,0.4581
5105.00,0.4578
5104.00,0.4575
5103.00,0.4572
5102.00,0.4569
5101.00,0.4566
5100.00,0.4563
5099.00,0.4561
5098.00,0.4558
5097.00,0.4556
5096.00,0.4553
5095.00,0.4551
5094.00,0.4548
5093.00,0.4545
5092.00,0.4542
5091.00,0.4538
5090.00,0.4535
5089.00,0.4533
5088.00,0.4530
5087.00,0.4528
5086.00,0.4527
5085.00,0.4525
5084.00,0.4523
5083.00,0.4521
5082.00,0.4519
5081.00,0.4517
5080.00,0.4515
5079.00,0.4513
5078.00,0.4510
5077.00,0.4508
5076.00,0.4506
5075.00,0.4505
5074.00,0.4503
5073.00,0.4501
5072.00,0.4499
5071.00,0.4497
5070.00,0.4495
5069.00,0.4492
5068.00,0.4490
5067.00,0.4488
5066.00,0.4485
5065.00,0.4483
5064.00,0.4481
5063.00,0.4478
5062.00,0.4475
5061.00,0.4472
5060.00,0.4470
5059.00,0.4467
5058.00,0.4464
5057.00,0.4461
5056.00,0.4458
5055.00,0.4456
5054.00,0.4453
5053.00,0.4450
5052.00,0.4447
5051.00,0.4444
5050.00,0.4441
5049.00,0.4438
5048.00,0.4434
5047.00,0.4431
5046.00,0.4427
5045.00,0.4424
5044.00,0.4420
5043.00,0.4416
5042.00,0.4412
5041.00,0.4408
5040.00,0.4404
5039.00,0.4400
5038.00,0.4397
5037.00,0.4393
5036.00,0.4389
5035.00,0.4385
5034.00,0.4382
5033.00,0.4378
5032.00,0.4374
5031.00,0.4370
5030.00,0.4366
5029.00,0.4362
5028.00,0.4358
5027.00,0.4354
5026.00,0.4349
5025.00,0.4345
5024.00,0.4341
5023.00,0.4338
5022.00,0.4334
5021.00,0.4330
5020.00,0.4327
5019.00,0.4323
5018.00,0.4319
5017.00,0.4315
5016.00,0.4311
5015.00,0.4307
5014.00,0.4304
5013.00,0.4300
5012.00,0.4296
5011.00,0.4293
5010.00,0.4289
5009.00,0.4285
5008.00,0.4282
5007.00,0.4278
5006.00,0.4275
5005.00,0.4272
5004.00,0.4269
5003.00,0.4265
5002.00,0.4262
5001.00,0.4259
5000.00,0.4256
4999.00,0.4253
4998.00,0.4250
4997.00,0.4247
4996.00,0.4245
4995.00,0.4242
4994.00,0.4240
4993.00,0.4237
4992.00,0.4234
4991.00,0.4232
4990.00,0.4229
4989.00,0.4227
4988.00,0.4225
4987.00,0.4224
4986.00,0.4222
4985.00,0.4220
4984.00,0.4218
4983.00,0.4216
4982.00,0.4214
4981.00,0.4212
4980.00,0.4210
4979.00,0.4209
4978.00,0.4208
4977.00,0.4207
4976.00,0.4207
4975.00,0.4206
4974.00,0.4205
4973.00,0.4205
4972.00,0.4204
4971.00,0.4204
4970.00,0.4204
4969.00,0.4204
4968.00,0.4205
4967.00,0.4205
4966.00,0.4206
4965.00,0.4206
4964.00,0.4206
4963.00,0.4207
4962.00,0.4208
4961.00,0.4208
4960.00,0.4210
4959.00,0.4211
4958.00,0.4212
4957.00,0.4213
4956.00,0.4215
4955.00,0.4216
4954.00,0.4218
4953.00,0.4219
4952.00,0.4221
4951.00,0.4223
4950.00,0.4225
4949.00,0.4227
4948.00,0.4229
4947.00,0.4231
4946.00,0.4233
4945.00,0.4236
4944.00,0.4238
4943.00,0.4240
4942.00,0.4242
4941.00,0.4245
4940.00,0.4248
4939.00,0.4251
4938.00,0.4254
4937.00,0.4258
4936.00,0.4261
4935.00,0.4265
4934.00,0.4268
4933.00,0.4271
4932.00,0.4274
4931.00,0.4278
4930.00,0.4282
4929.00,0.4286
4928.00,0.4290
4927.00,0.4294
4926.00,0.4298
4925.00,0.4301
4924.00,0.4305
4923.00,0.4309
4922.00,0.4313
4921.00,0.4318
4920.00,0.4323
4919.00,0.4328
4918.00,0.4332
4917.00,0.4337
4916.00,0.4342
4915.00,0.4347
4914.00,0.4352
4913.00,0.4357
4912.00,0.4362
4911.00,0.4367
4910.00,0.4373
4909.00,0.4378
4908.00,0.4384
4907.00,0.4389
4906.00,0.4395
4905.00,0.4401
4904.00,0.4406
4903.00,0.4412
4902.00,0.4417
4901.00,0.4423
4900.00,0.4428
4899.00,0.4433
4898.00,0.4439
4897.00,0.4445
4896.00,0.4452
4895.00,0.4458
4894.00,0.4464
4893.00,0.4470
4892.00,0.4476
4891.00,0.4482
4890.00,0.4488
4889.00,0.4494
4888.00,0.4499
4887.00,0.4505
4886.00,0.4511
4885.00,0.4517
4884.00,0.4523
4883.00,0.4529
4882.00,0.4536
4881.00,0.4542
4880.00,0.4548
4879.00,0.4555
4878.00,0.4562
4877.00,0.4569
4876.00,0.4575
4875.00,0.4581
4874.00,0.4587
4873.00,0.4593
4872.00,0.4598
4871.00,0.4604
4870.00,0.4611
4869.00,0.4617
4868.00,0.4623
4867.00,0.4630
4866.00,0.4636
4865.00,0.4642
4864.00,0.4647
4863.00,0.4653
4862.00,0.4659
4861.00,0.4665
4860.00,0.4670
4859.00,0.4676
4858.00,0.4682
4857.00,0.4688
4856.00,0.4694
4855.00,0.4699
4854.00,0.4705
4853.00,0.4710
4852.00,0.4716
4851.00,0.4721
4850.00,0.4726
4849.00,0.4731
4848.00,0.4737
4847.00,0.4742
4846.00,0.4748
4845.00,0.4753
4844.00,0.4758
4843.00,0.4764
4842.00,0.4769
4841.00,0.4775
4840.00,0.4780
4839.00,0.4786
4838.00,0.4791
4837.00,0.4796
4836.00,0.4801
4835.00,0.4806
4834.00,0.4811
4833.00,0.4816
4832.00,0.4821
4831.00,0.4825
4830.00,0.4830
4829.00,0.4834
4828.00,0.4838
4827.00,0.4843
4826.00,0.4847
4825.00,0.4852
4824.00,0.4857
4823.00,0.4861
4822.00,0.4865
4821.00,0.4869
4820.00,0.4873
4819.00,0.4877
4818.00,0.4881
4817.00,0.4885
4816.00,0.4890
4815.00,0.4894
4814.00,0.4898
4813.00,0.4902
4812.00,0.4906
4811.00,0.4909
4810.00,0.4913
4809.00,0.4917
4808.00,0.4920
4807.00,0.4924
4806.00,0.4927
4805.00,0.4930
4804.00,0.4933
4803.00,0.4936
4802.00,0.4939
4801.00,0.4943
4800.00,0.4946
4799.00,0.4949
4798.00,0.4952
4797.00,0.4956
4796.00,0.4959
4795.00,0.4962
4794.00,0.4965
4793.00,0.4968
4792.00,0.4971
4791.00,0.4975
4790.00,0.4978
4789.00,0.4980
4788.00,0.4983
4787.00,0.4985
4786.00,0.4988
4785.00,0.4990
4784.00,0.4993
4783.00,0.4995
4782.00,0.4998
4781.00,0.5000
4780.00,0.5002
4779.00,0.5004
4778.00,0.5007
4777.00,0.5009
4776.00,0.5011
4775.00,0.5013
4774.00,0.5015
4773.00,0.5016
4772.00,0.5018
4771.00,0.5019
4770.00,0.5020
4769.00,0.5021
4768.00,0.5023
4767.00,0.5025
4766.00,0.5027
4765.00,0.5029
4764.00,0.5030
4763.00,0.5032
4762.00,0.5033
4761.00,0.5034
4760.00,0.5035
4759.00,0.5036
4758.00,0.5037
4757.00,0.5038
4756.00,0.5039
4755.00,0.5039
4754.00,0.5040
4753.00,0.5040
4752.00,0.5041
4751.00,0.5041
4750.00,0.5042
4749.00,0.5042
4748.00,0.5043
4747.00,0.5044
4746.00,0.5044
4745.00,0.5044
4744.00,0.5044
4743.00,0.5043
4742.00,0.5042
4741.00,0.5041
4740.00,0.5041
4739.00,0.5040
4738.00,0.5040
4737.00,0.5040
4736.00,0.5039
4735.00,0.5039
4734.00,0.5039
4733.00,0.5038
4732.00,0.5038
4731.00,0.5037
4730.00,0.5037
4729.00,0.5036
4728.00,0.5034
4727.00,0.5033
4726.00,0.5032
4725.00,0.5031
4724.00,0.5030
4723.00,0.5029
4722.00,0.5027
4721.00,0.5026
4720.00,0.5024
4719.00,0.5023
4718.00,0.5021
4717.00,0.5020
4716.00,0.5018
4715.00,0.5017
4714.00,0.5015
4713.00,0.5013
4712.00,0.5011
4711.00,0.5010
4710.00,0.5008
4709.00,0.5006
4708.00,0.5004
4707.00,0.5002
4706.00,0.5001
4705.00,0.4999
4704.00,0.4997
4703.00,0.4995
4702.00,0.4993
4701.00,0.4991
4700.00,0.4989
4699.00,0.4987
4698.00,0.4985
4697.00,0.4983
4696.00,0.4982
4695.00,0.4980
4694.00,0.4978
4693.00,0.4976
4692.00,0.4975
4691.00,0.4973
4690.00,0.4972
4689.00,0.4970
4688.00,0.4968
4687.00,0.4966
4686.00,0.4964
4685.00,0.4962
4684.00,0.4961
4683.00,0.4959
4682.00,0.4958
4681.00,0.4956
4680.00,0.4954
4679.00,0.4952
4678.00,0.4949
4677.00,0.4947
4676.00,0.4945
4675.00,0.4943
4674.00,0.4941
4673.00,0.4940
4672.00,0.4938
4671.00,0.4937
4670.00,0.4936
4669.00,0.4934
4668.00,0.4933
4667.00,0.4931
4666.00,0.4929
4665.00,0.4928
4664.00,0.4926
4663.00,0.4924
4662.00,0.4923
4661.00,0.4921
4660.00,0.4920
4659.00,0.4918
4658.00,0.4916
4657.00,0.4914
4656.00,0.4913
4655.00,0.4911
4654.00,0.4910
4653.00,0.4908
4652.00,0.4907
4651.00,0.4905
4650.00,0.4904
4649.00,0.4902
4648.00,0.4900
4647.00,0.4898
4646.00,0.4897
4645.00,0.4895
4644.00,0.4894
4643.00,0.4892
4642.00,0.4891
4641.00,0.4889
4640.00,0.4887
4639.00,0.4886
4638.00,0.4884
4637.00,0.4883
4636.00,0.4882
4635.00,0.4881
4634.00,0.4880
4633.00,0.4879
4632.00,0.4878
4631.00,0.4877
4630.00,0.4876
4629.00,0.4875
4628.00,0.4874
4627.00,0.4872
4626.00,0.4871
4625.00,0.4870
4624.00,0.4870
4623.00,0.4869
4622.00,0.4869
4621.00,0.4868
4620.00,0.4868
4619.00,0.4867
4618.00,0.4866
4617.00,0.4865
4616.00,0.4864
4615.00,0.4864
4614.00,0.4863
4613.00,0.4861
4612.00,0.4860
4611.00,0.4859
4610.00,0.4859
4609.00,0.4858
4608.00,0.4858
4607.00,0.4858
4606.00,0.4858
4605.00,0.4857
4604.00,0.4856
4603.00,0.4856
4602.00,0.4855
4601.00,0.4854
4600.00,0.4854
4599.00,0.4854
4598.00,0.4854
4597.00,0.4853
4596.00,0.4853
4595.00,0.4852
4594.00,0.4852
4593.00,0.4852
4592.00,0.4851
4591.00,0.4851
4590.00,0.4851
4589.00,0.4851
4588.00,0.4851
4587.00,0.4851
4586.00,0.4851
4585.00,0.4851
4584.00,0.4851
4583.00,0.4850
4582.00,0.4850
4581.00,0.4849
4580.00,0.4849
4579.00,0.4849
4578.00,0.4848
4577.00,0.4848
4576.00,0.4848
4575.00,0.4848
4574.00,0.4848
4573.00,0.4848
4572.00,0.4848
4571.00,0.4847
4570.00,0.4847
4569.00,0.4846
4568.00,0.4846
4567.00,0.4845
4566.00,0.4844
4565.00,0.4844
4564.00,0.4843
4563.00,0.4843
4562.00,0.4842
4561.00,0.4842
4560.00,0.4842
4559.00,0.4841
4558.00,0.4841
4557.00,0.4841
4556.00,0.4840
4555.00,0.4838
4554.00,0.4837
4553.00,0.4835
4552.00,0.4833
4551.00,0.4832
4550.00,0.4831
4549.00,0.4829
4548.00,0.4828
4547.00,0.4827
4546.00,0.4826
4545.00,0.4825
4544.00,0.4824
4543.00,0.4823
4542.00,0.4823
4541.00,0.4821
4540.00,0.4820
4539.00,0.4818
4538.00,0.4816
4537.00,0.4813
4536.00,0.4811
4535.00,0.4809
4534.00,0.4807
4533.00,0.4805
4532.00,0.4804
4531.00,0.4803
4530.00,0.4801
4529.00,0.4799
4528.00,0.4797
4527.00,0.4794
4526.00,0.4792
4525.00,0.4790
4524.00,0.4788
4523.00,0.4786
4522.00,0.4784
4521.00,0.4781
4520.00,0.4778
4519.00,0.4775
4518.00,0.4773
4517.00,0.4771
4516.00,0.4768
4515.00,0.4766
4514.00,0.4764
4513.00,0.4762
4512.00,0.4760
4511.00,0.4758
4510.00,0.4756
4509.00,0.4753
4508.00,0.4751
4507.00,0.4748
4506.00,0.4745
4505.00,0.4743
4504.00,0.4740
4503.00,0.4738
4502.00,0.4737
4501.00,0.4735
4500.00,0.4733
4499.00,0.4732
4498.00,0.4730
4497.00,0.4728
4496.00,0.4726
4495.00,0.4724
4494.00,0.4723
4493.00,0.4721
4492.00,0.4720
4491.00,0.4719
4490.00,0.4718
4489.00,0.4718
4488.00,0.4718
4487.00,0.4718
4486.00,0.4719
4485.00,0.4719
4484.00,0.4719
4483.00,0.4719
4482.00,0.4719
4481.00,0.4720
4480.00,0.4721
4479.00,0.4722
4478.00,0.4723
4477.00,0.4724
4476.00,0.4725
4475.00,0.4726
4474.00,0.4727
4473.00,0.4729
4472.00,0.4731
4471.00,0.4733
4470.00,0.4735
4469.00,0.4738
4468.00,0.4741
4467.00,0.4744
4466.00,0.4747
4465.00,0.4750
4464.00,0.4753
4463.00,0.4756
4462.00,0.4760
4461.00,0.4763
4460.00,0.4766
4459.00,0.4769
4458.00,0.4773
4457.00,0.4777
4456.00,0.4781
4455.00,0.4786
4454.00,0.4790
4453.00,0.4794
4452.00,0.4798
4451.00,0.4802
4450.00,0.4805
4449.00,0.4809
4448.00,0.4813
4447.00,0.4817
4446.00,0.4822
4445.00,0.4827
4444.00,0.4832
4443.00,0.4838
4442.00,0.4843
4441.00,0.4848
4440.00,0.4852
4439.00,0.4857
4438.00,0.4862
4437.00,0.4867
4436.00,0.4873
4435.00,0.4878
4434.00,0.4884
4433.00,0.4890
4432.00,0.4896
4431.00,0.4902
4430.00,0.4909
4429.00,0.4915
4428.00,0.4922
4427.00,0.4929
4426.00,0.4936
4425.00,0.4942
4424.00,0.4948
4423.00,0.4955
4422.00,0.4961
4421.00,0.4968
4420.00,0.4974
4419.00,0.4981
4418.00,0.4987
4417.00,0.4994
4416.00,0.5000
4415.00,0.5007
4414.00,0.5013
4413.00,0.5019
4412.00,0.5025
4411.00,0.5031
4410.00,0.5037
4409.00,0.5042
4408.00,0.5046
4407.00,0.5050
4406.00,0.5055
4405.00,0.5059
4404.00,0.5063
4403.00,0.5067
4402.00,0.5071
4401.00,0.5074
4400.00,0.5078
4399.00,0.5081
4398.00,0.5084
4397.00,0.5086
4396.00,0.5089
4395.00,0.5090
4394.00,0.5092
4393.00,0.5093
4392.00,0.5094
4391.00,0.5094
4390.00,0.5095
4389.00,0.5095
4388.00,0.5095
4387.00,0.5096
4386.00,0.5096
4385.00,0.5096
4384.00,0.5095
4383.00,0.5094
4382.00,0.5092
4381.00,0.5090
4380.00,0.5088
4379.00,0.5086
4378.00,0.5084
4377.00,0.5083
4376.00,0.5081
4375.00,0.5079
4374.00,0.5077
4373.00,0.5074
4372.00,0.5072
4371.00,0.5070
4370.00,0.5068
4369.00,0.5067
4368.00,0.5065
4367.00,0.5063
4366.00,0.5061
4365.00,0.5059
4364.00,0.5058
4363.00,0.5057
4362.00,0.5056
4361.00,0.5055
4360.00,0.5054
4359.00,0.5054
4358.00,0.5053
4357.00,0.5053
4356.00,0.5053
4355.00,0.5054
4354.00,0.5054
4353.00,0.5055
4352.00,0.5056
4351.00,0.5056
4350.00,0.5057
4349.00,0.5057
4348.00,0.5058
4347.00,0.5059
4346.00,0.5060
4345.00,0.5062
4344.00,0.5063
4343.00,0.5064
4342.00,0.5066
4341.00,0.5069
4340.00,0.5072
4339.00,0.5074
4338.00,0.5077
4337.00,0.5080
4336.00,0.5082
4335.00,0.5084
4334.00,0.5086
4333.00,0.5088
4332.00,0.5090
4331.00,0.5092
4330.00,0.5096
4329.00,0.5099
4328.00,0.5102
4327.00,0.5104
4326.00,0.5106
4325.00,0.5107
4324.00,0.5109
4323.00,0.5111
4322.00,0.5113
4321.00,0.5115
4320.00,0.5117
4319.00,0.5118
4318.00,0.5120
4317.00,0.5121
4316.00,0.5123
4315.00,0.5124
4314.00,0.5126
4313.00,0.5127
4312.00,0.5129
4311.00,0.5131
4310.00,0.5134
4309.00,0.5136
4308.00,0.5138
4307.00,0.5139
4306.00,0.5140
4305.00,0.5140
4304.00,0.5141
4303.00,0.5143
4302.00,0.5144
4301.00,0.5145
4300.00,0.5146
4299.00,0.5147
4298.00,0.5147
4297.00,0.5148
4296.00,0.5149
4295.00,0.5150
4294.00,0.5150
4293.00,0.5150
4292.00,0.5150
4291.00,0.5149
4290.00,0.5149
4289.00,0.5148
4288.00,0.5148
4287.00,0.5147
4286.00,0.5146
4285.00,0.5145
4284.00,0.5144
4283.00,0.5143
4282.00,0.5142
4281.00,0.5141
4280.00,0.5141
4279.00,0.5140
4278.00,0.5140
4277.00,0.5139
4276.00,0.5138
4275.00,0.5137
4274.00,0.5136
4273.00,0.5135
4272.00,0.5134
4271.00,0.5133
4270.00,0.5132
4269.00,0.5131
4268.00,0.5131
4267.00,0.5131
4266.00,0.5131
4265.00,0.5131
4264.00,0.5131
4263.00,0.5131
4262.00,0.5131
4261.00,0.5131
4260.00,0.5131
4259.00,0.5132
4258.00,0.5132
4257.00,0.5132
4256.00,0.5132
4255.00,0.5131
4254.00,0.5130
4253.00,0.5129
4252.00,0.5129
4251.00,0.5129
4250.00,0.5129
4249.00,0.5129
4248.00,0.5129
4247.00,0.5128
4246.00,0.5129
4245.00,0.5129
4244.00,0.5129
4243.00,0.5130
4242.00,0.5130
4241.00,0.5130
4240.00,0.5130
4239.00,0.5130
4238.00,0.5131
4237.00,0.5131
4236.00,0.5132
4235.00,0.5132
4234.00,0.5132
4233.00,0.5132
4232.00,0.5133
4231.00,0.5133
4230.00,0.5134
4229.00,0.5135
4228.00,0.5135
4227.00,0.5135
4226.00,0.5134
4225.00,0.5134
4224.00,0.5134
4223.00,0.5134
4222.00,0.5134
4221.00,0.5134
4220.00,0.5133
4219.00,0.5133
4218.00,0.5132
4217.00,0.5132
4216.00,0.5132
4215.00,0.5132
4214.00,0.5132
4213.00,0.5132
4212.00,0.5131
4211.00,0.5131
4210.00,0.5131
4209.00,0.5131
4208.00,0.5131
4207.00,0.5131
4206.00,0.5132
4205.00,0.5132
4204.00,0.5132
4203.00,0.5132
4202.00,0.5132
4201.00,0.5133
4200.00,0.5134
4199.00,0.5136
4198.00,0.5136
4197.00,0.5137
4196.00,0.5137
4195.00,0.5137
4194.00,0.5137
4193.00,0.5138
4192.00,0.5139
4191.00,0.5140
4190.00,0.5141
4189.00,0.5142
4188.00,0.5143
4187.00,0.5145
4186.00,0.5147
4185.00,0.5150
4184.00,0.5152
4183.00,0.5153
4182.00,0.5155
4181.00,0.5156
4180.00,0.5158
4179.00,0.5160
4178.00,0.5163
4177.00,0.5165
4176.00,0.5168
4175.00,0.5170
4174.00,0.5173
4173.00,0.5175
4172.00,0.5177
4171.00,0.5180
4170.00,0.5183
4169.00,0.5186
4168.00,0.5189
4167.00,0.5193
4166.00,0.5197
4165.00,0.5200
4164.00,0.5204
4163.00,0.5207
4162.00,0.5210
4161.00,0.5213
4160.00,0.5217
4159.00,0.5222
4158.00,0.5228
4157.00,0.5234
4156.00,0.5240
4155.00,0.5245
4154.00,0.5250
4153.00,0.5255
4152.00,0.5260
4151.00,0.5265
4150.00,0.5270
4149.00,0.5275
4148.00,0.5280
4147.00,0.5285
4146.00,0.5291
4145.00,0.5297
4144.00,0.5303
4143.00,0.5310
4142.00,0.5316
4141.00,0.5322
4140.00,0.5328
4139.00,0.5334
4138.00,0.5341
4137.00,0.5348
4136.00,0.5355
4135.00,0.5362
4134.00,0.5369
4133.00,0.5375
4132.00,0.5382
4131.00,0.5388
4130.00,0.5395
4129.00,0.5403
4128.00,0.5410
4127.00,0.5417
4126.00,0.5424
4125.00,0.5431
4124.00,0.5439
4123.00,0.5447
4122.00,0.5455
4121.00,0.5463
4120.00,0.5471
4119.00,0.5479
4118.00,0.5486
4117.00,0.5494
4116.00,0.5503
4115.00,0.5512
4114.00,0.5521
4113.00,0.5531
4112.00,0.5540
4111.00,0.5549
4110.00,0.5558
4109.00,0.5567
4108.00,0.5576
4107.00,0.5585
4106.00,0.5594
4105.00,0.5602
4104.00,0.5611
4103.00,0.5620
4102.00,0.5629
4101.00,0.5639
4100.00,0.5649
4099.00,0.5659
4098.00,0.5669
4097.00,0.5679
4096.00,0.5688
4095.00,0.5698
4094.00,0.5707
4093.00,0.5717
4092.00,0.5728
4091.00,0.5739
4090.00,0.5750
4089.00,0.5761
4088.00,0.5771
4087.00,0.5781
4086.00,0.5791
4085.00,0.5801
4084.00,0.5812
4083.00,0.5824
4082.00,0.5836
4081.00,0.5847
4080.00,0.5858
4079.00,0.5868
4078.00,0.5878
4077.00,0.5889
4076.00,0.5900
4075.00,0.5912
4074.00,0.5923
4073.00,0.5934
4072.00,0.5945
4071.00,0.5955
4070.00,0.5966
4069.00,0.5977
4068.00,0.5989
4067.00,0.6001
4066.00,0.6013
4065.00,0.6025
4064.00,0.6038
4063.00,0.6050
4062.00,0.6061
4061.00,0.6072
4060.00,0.6083
4059.00,0.6093
4058.00,0.6103
4057.00,0.6113
4056.00,0.6123
4055.00,0.6133
4054.00,0.6143
4053.00,0.6154
4052.00,0.6164
4051.00,0.6175
4050.00,0.6186
4049.00,0.6197
4048.00,0.6208
4047.00,0.6220
4046.00,0.6231
4045.00,0.6241
4044.00,0.6250
4043.00,0.6258
4042.00,0.6266
4041.00,0.6275
4040.00,0.6284
4039.00,0.6293
4038.00,0.6302
4037.00,0.6311
4036.00,0.6320
4035.00,0.6329
4034.00,0.6339
4033.00,0.6348
4032.00,0.6357
4031.00,0.6365
4030.00,0.6372
4029.00,0.6378
4028.00,0.6383
4027.00,0.6389
4026.00,0.6394
4025.00,0.6400
4024.00,0.6405
4023.00,0.6411
4022.00,0.6416
4021.00,0.6421
4020.00,0.6425
4019.00,0.6430
4018.00,0.6434
4017.00,0.6438
4016.00,0.6441
4015.00,0.6444
4014.00,0.6447
4013.00,0.6450
4012.00,0.6452
4011.00,0.6454
4010.00,0.6456
4009.00,0.6456
4008.00,0.6456
4007.00,0.6455
4006.00,0.6454
4005.00,0.6453
4004.00,0.6453
4003.00,0.6452
4002.00,0.6451
4001.00,0.6450
4000.00,0.6448
   㕕侱�
♼⠨⚚